File: processed_data/12.5mA4msec-0.2mA16msec.csv
Capacity_mAh,Voltage_V
0.0,3.172118
0.631751,2.919023
1.2635,2.858646
1.89525,2.826747
2.527,2.807944
3.15875,2.798724
3.79051,2.793884
4.42226,2.789474
5.05401,2.786301
5.68576,2.783609
6.31751,2.781133
6.94926,2.779164
7.58101,2.777206
8.21276,2.776044
8.84451,2.7744
9.47626,2.773803
10.108,2.772604
10.7398,2.771981
11.3715,2.771491
12.0033,2.77057
12.635,2.769719
13.2668,2.768807
13.8985,2.768191
14.5303,2.768431
15.162,2.768153
15.7938,2.767455
16.4255,2.767405
17.0573,2.76731
17.689,2.766616
18.3208,2.767342
18.9525,2.76702
19.5843,2.766961
20.216,2.766591
20.8478,2.766595
21.4795,2.766709
22.1113,2.765688
22.743,2.763921
23.3748,2.763588
24.0065,2.765585
24.6383,2.7654
25.27,2.764725
25.9018,2.76394
26.5335,2.762775
27.1653,2.761338
27.797,2.759447
28.4288,2.757901
29.0605,2.757433
29.6923,2.754972
30.324,2.754556
30.9558,2.753942
31.5875,2.751582
32.2193,2.747024
32.8511,2.736905
33.4828,2.737694
34.1146,2.733182
34.7463,2.728982
35.3781,2.730803
36.0098,2.723823
36.6416,2.717981
37.2733,2.710891
37.9051,2.713469
38.5368,2.72376
39.1686,2.723127
39.8003,2.694268
40.4321,2.71262
41.0638,2.716864
41.6956,2.720371
42.3273,2.711037
42.9591,2.710976
43.5908,2.72869
44.2226,2.729836
44.8543,2.730181
45.4861,2.729589
46.1178,2.729294
46.7496,2.728715
47.3813,2.728366
48.0131,2.727788
48.6448,2.727897
49.2766,2.726952
49.9083,2.727165
50.5401,2.725264
51.1718,2.720111
51.8036,2.717045
52.4353,2.70915
53.0671,2.707327
53.6988,2.701913
54.3306,2.696636
54.9623,2.697628
55.5941,2.697599
56.2258,2.700597
56.8576,2.707913
57.4893,2.71299
58.1211,2.717196
58.7528,2.720181
59.3846,2.724978
60.0163,2.725555
60.6481,2.725362
61.2798,2.724943
61.9116,2.722682
62.5433,2.722083
63.1751,2.718685
63.8068,2.716527
64.4386,2.716062
65.0703,2.715304
65.7021,2.713398
66.3339,2.710104
66.9656,2.688494
67.5974,2.690486
68.2291,2.689927
68.8609,2.702828
69.4926,2.701715
70.1244,2.69343
70.7561,2.694294
71.3879,2.69311
72.0196,2.691494
72.6514,2.691081
73.2831,2.691272
73.9149,2.688878
74.5466,2.687537
75.1784,2.685826
75.8101,2.684346
76.4419,2.683558
77.0736,2.682563
77.7054,2.681923
78.3371,2.68034
78.9689,2.678625
79.6006,2.675463
80.2324,2.670987
80.8641,2.673973
81.4959,2.667629
82.1276,2.66112
82.7594,2.656059
83.3911,2.661112
84.0229,2.65918
84.6546,2.657994
85.2864,2.663056
85.9181,2.652862
86.5499,2.663766
87.1816,2.665557
87.8134,2.666576
88.4451,2.666448
89.0769,2.665598
89.7086,2.665574
90.3404,2.663726
90.9721,2.661781
91.6039,2.658047
92.2356,2.655789
92.8674,2.65368
93.4991,2.648874
94.1309,2.646
94.7626,2.638033
95.3944,2.629687
96.0261,2.640089
96.6579,2.641474
97.2896,2.642005
97.9214,2.637917
98.5532,2.630715
99.1849,2.629199
99.8167,2.626797
100.448,2.624319
101.08,2.624472
101.712,2.627617
102.344,2.613863
102.975,2.613655
103.607,2.614261
104.239,2.613043
104.871,2.600852
105.502,2.607898
106.134,2.607715
106.766,2.606066
107.398,2.601432
108.029,2.607035
108.661,2.608756
109.293,2.608565
109.925,2.612912
110.556,2.610802
111.188,2.606858
111.82,2.604728
112.452,2.603029
113.083,2.600497
113.715,2.597641
114.347,2.588765
114.979,2.587404
115.61,2.583658
116.242,2.581032
116.874,2.58575
117.506,2.584112
118.137,2.582541
118.769,2.580386
119.401,2.579217
120.033,2.578505
120.664,2.578572
121.296,2.5616
121.928,2.570075
122.56,2.574036
123.191,2.57167
123.823,2.570809
124.455,2.570679
125.087,2.569296
125.718,2.567205
126.35,2.564661
126.982,2.563345
127.614,2.562579
128.245,2.559667
128.877,2.556222
129.509,2.554188
130.141,2.551116
130.772,2.546735
131.404,2.543729
132.036,2.541033
132.668,2.538259
133.299,2.535507
133.931,2.532969
134.563,2.529215
135.195,2.526181
135.826,2.523464
136.458,2.520969
137.09,2.518117
137.722,2.514641
138.353,2.511761
138.985,2.508481
139.617,2.505111
140.249,2.502383
140.88,2.498509
141.512,2.494731
142.144,2.491178
142.776,2.487163
143.407,2.48419
144.039,2.480501
144.671,2.477122
145.303,2.472556
145.934,2.468148
146.566,2.46363
147.198,2.459447
147.83,2.454319
148.461,2.449224
149.093,2.444476
149.725,2.43968
150.357,2.434994
150.988,2.429646
151.62,2.424375
152.252,2.418738
152.884,2.414151
153.515,2.409703
154.147,2.404724
154.779,2.399753
155.411,2.394509
156.042,2.388627
156.674,2.383748
157.306,2.378396
157.938,2.372733
158.569,2.366377
159.201,2.361684
159.833,2.355322
160.465,2.349479
161.096,2.343816
161.728,2.337499
162.36,2.331586
162.992,2.326026
163.623,2.31833
164.255,2.311815
164.887,2.303763
165.519,2.297459
166.151,2.291141
166.782,2.284208
167.414,2.278302
168.046,2.271487
168.678,2.263886
169.309,2.256609
169.941,2.248753
170.573,2.24075
171.205,2.233877
171.836,2.225223
172.468,2.215807
173.1,2.207109
173.732,2.198617
174.363,2.190439
174.995,2.181334
175.627,2.17236
176.259,2.170331
176.89,2.163746
177.522,2.16027
178.154,2.149497
178.786,2.139578
179.417,2.12888
180.049,2.117892
180.681,2.105195
181.313,2.089686
181.944,2.077744
182.576,2.064535
183.208,2.059802
183.84,2.038013
184.471,2.022307
185.103,2.01088
185.735,2.004256
186.367,1.99882
186.998,2.000041
187.63,2.00556
188.262,2.00911
188.894,2.011302
189.06,2.011187