File: processed_data/30.0mA1msec-0.2mA29msec.csv
Capacity_mAh,Voltage_V
0.0,3.242666
0.286732,3.048207
0.573464,2.989779
0.860196,2.953057
1.14693,2.92757
1.43366,2.909219
1.72039,2.895069
2.00712,2.885566
2.29386,2.877089
2.58059,2.870739
2.86732,2.866464
3.15405,2.864059
3.44078,2.861366
3.72751,2.861408
4.01425,2.860013
4.30098,2.859339
4.58771,2.858442
4.87444,2.857844
5.16117,2.857467
5.44791,2.856542
5.73464,2.856413
6.02137,2.856141
6.3081,2.855295
6.59483,2.854515
6.88157,2.854805
7.1683,2.854697
7.45503,2.854095
7.74176,2.854585
8.02849,2.854072
8.31523,2.853815
8.60196,2.853799
8.88869,2.853965
9.17542,2.854161
9.46215,2.853851
9.74889,2.85397
10.0356,2.854851
10.3223,2.853605
10.6091,2.853623
10.8958,2.853404
11.1825,2.853168
11.4693,2.853074
11.756,2.853033
12.0427,2.852548
12.3295,2.853028
12.6162,2.852258
12.9029,2.852656
13.1897,2.852329
13.4764,2.851562
13.7631,2.850541
14.0499,2.850916
14.3366,2.852448
14.6233,2.852108
14.9101,2.852152
15.1968,2.851274
15.4835,2.851485
15.7703,2.851646
16.057,2.851579
16.3437,2.850958
16.6305,2.85169
16.9172,2.851711
17.2039,2.85155
17.4906,2.852016
17.7774,2.852271
18.0641,2.852439
18.3508,2.852858
18.6376,2.853209
18.9243,2.85216
19.211,2.853366
19.4978,2.853831
19.7845,2.854024
20.0712,2.853701
20.358,2.852966
20.6447,2.853361
20.9314,2.85302
21.2182,2.854156
21.5049,2.85402
21.7916,2.854048
22.0784,2.85438
22.3651,2.854348
22.6518,2.853637
22.9386,2.854498
23.2253,2.854485
23.512,2.853703
23.7987,2.854517
24.0855,2.854326
24.3722,2.854688
24.6589,2.854254
24.9457,2.854135
25.2324,2.852647
25.5191,2.853806
25.8059,2.853304
26.0926,2.852854
26.3793,2.85308
26.6661,2.854201
26.9528,2.85359
27.2395,2.853884
27.5263,2.8543
27.813,2.85422
28.0997,2.854361
28.3865,2.854903
28.6732,2.854417
28.9599,2.853444
29.2467,2.854089
29.5334,2.853585
29.8201,2.853505
30.1069,2.853898
30.3936,2.854256
30.6803,2.855297
30.967,2.85591
31.2538,2.856187
31.5405,2.855674
31.8272,2.85565
32.114,2.85462
32.4007,2.85432
32.6874,2.854833
32.9742,2.855392
33.2609,2.856539
33.5476,2.856475
33.8344,2.856154
34.1211,2.855914
34.4078,2.855476
34.6946,2.855793
34.9813,2.854923
35.268,2.854847
35.5548,2.855573
35.8415,2.85501
36.1282,2.854068
36.415,2.854015
36.7017,2.853974
36.9884,2.853746
37.2751,2.854553
37.5619,2.854962
37.8486,2.855352
38.1353,2.855257
38.4221,2.855771
38.7088,2.855097
38.9955,2.855258
39.2823,2.854746
39.569,2.854359
39.8557,2.8536
40.1425,2.853533
40.4292,2.852955
40.7159,2.853276
41.0027,2.852379
41.2894,2.851805
41.5761,2.851635
41.8629,2.851603
42.1496,2.851291
42.4363,2.850187
42.7231,2.850507
43.0098,2.85084
43.2965,2.850188
43.5833,2.850468
43.87,2.851306
44.1567,2.851049
44.4434,2.850827
44.7302,2.850684
45.0169,2.84947
45.3036,2.849662
45.5904,2.850327
45.8771,2.850101
46.1638,2.849065
46.4506,2.848847
46.7373,2.848533
47.024,2.847745
47.3108,2.847411
47.5975,2.846606
47.8842,2.846386
48.171,2.846483
48.4577,2.846772
48.7444,2.846968
49.0312,2.846644
49.3179,2.846709
49.6046,2.846623
49.8914,2.846047
50.1781,2.845365
50.4648,2.845494
50.7515,2.845675
51.0383,2.844979
51.325,2.845378
51.6117,2.845059
51.8985,2.844386
52.1852,2.844496
52.4719,2.844776
52.7587,2.843958
53.0454,2.843892
53.3321,2.843128
53.6189,2.843174
53.9056,2.84275
54.1923,2.841779
54.4791,2.841563
54.7658,2.84107
55.0525,2.839354
55.3393,2.840013
55.626,2.839829
55.9127,2.841383
56.1995,2.841368
56.4862,2.841112
56.7729,2.840648
57.0597,2.840349
57.3464,2.839942
57.6331,2.839975
57.9198,2.839125
58.2066,2.839149
58.4933,2.83884
58.78,2.83733
59.0668,2.83875
59.3535,2.838538
59.6402,2.837833
59.927,2.837806
60.2137,2.837864
60.5004,2.838511
60.7872,2.837609
61.0739,2.837977
61.3606,2.836848
61.6474,2.836748
61.9341,2.837346
62.2208,2.83713
62.5076,2.83694
62.7943,2.836383
63.081,2.836183
63.3678,2.835909
63.6545,2.836307
63.9412,2.835428
64.2279,2.835957
64.5147,2.835087
64.8014,2.834719
65.0881,2.83528
65.3749,2.835332
65.6616,2.834122
65.9483,2.83408
66.2351,2.833767
66.5218,2.833774
66.8085,2.832924
67.0953,2.832635
67.382,2.831843
67.6687,2.832078
67.9555,2.83147
68.2422,2.831573
68.5289,2.830503
68.8157,2.83049
69.1024,2.828376
69.3891,2.829655
69.6759,2.828557
69.9626,2.82825
70.2493,2.827872
70.5361,2.827745
70.8228,2.827372
71.1095,2.826711
71.3962,2.826387
71.683,2.826447
71.9697,2.825929
72.2564,2.824921
72.5432,2.82589
72.8299,2.825699
73.1166,2.825038
73.4034,2.824231
73.6901,2.824178
73.9768,2.823847
74.2636,2.822951
74.5503,2.822863
74.837,2.822469
75.1238,2.82205
75.4105,2.820664
75.6972,2.820333
75.984,2.82127
76.2707,2.820146
76.5574,2.819712
76.8442,2.818571
77.1309,2.818634
77.4176,2.817539
77.7044,2.817987
77.9911,2.817192
78.2778,2.81755
78.5645,2.817331
78.8513,2.816812
79.138,2.817783
79.4247,2.816913
79.7115,2.816853
79.9982,2.816387
80.2849,2.81539
80.5717,2.815205
80.8584,2.815607
81.1451,2.815201
81.4319,2.81424
81.7186,2.813587
82.0053,2.812444
82.2921,2.812224
82.5788,2.811903
82.8655,2.811375
83.1523,2.810919
83.439,2.810801
83.7257,2.809655
84.0125,2.810143
84.2992,2.809836
84.5859,2.809409
84.8726,2.808747
85.1594,2.809121
85.4461,2.809232
85.7328,2.809264
85.9284,2.809351