File: processed_data/35.0mA1msec-0.2mA14msec.csv
Capacity_mAh,Voltage_V
0.0,3.163232
0.605501,2.920934
1.211,2.85905
1.8165,2.823009
2.422,2.801513
3.0275,2.792362
3.63301,2.784712
4.23851,2.780308
4.84401,2.780582
5.44951,2.77491
6.05501,2.775659
6.66051,2.7735
7.26601,2.772663
7.87151,2.770367
8.47701,2.77053
9.08251,2.769784
9.68801,2.767699
10.2935,2.767191
10.899,2.767556
11.5045,2.766833
12.11,2.766413
12.7155,2.765497
13.321,2.76435
13.9265,2.763005
14.532,2.763117
15.1375,2.76074
15.743,2.762746
16.3485,2.764315
16.954,2.763772
17.5595,2.764431
18.165,2.761616
18.7705,2.764869
19.376,2.763436
19.9815,2.764332
20.587,2.763841
21.1925,2.764758
21.798,2.763444
22.4035,2.762124
23.009,2.760705
23.6145,2.759653
24.22,2.763293
24.8255,2.762727
25.431,2.761357
26.0365,2.760056
26.642,2.761788
27.2475,2.758035
27.853,2.758557
28.4585,2.757061
29.064,2.75782
29.6695,2.756011
30.275,2.756517
30.8805,2.754766
31.486,2.756187
32.0915,2.755413
32.697,2.751915
33.3026,2.751109
33.9081,2.750679
34.5136,2.752004
35.1191,2.748767
35.7246,2.751325
36.3301,2.7477
36.9356,2.747889
37.5411,2.746427
38.1466,2.74239
38.7521,2.742377
39.3576,2.743118
39.9631,2.739598
40.5686,2.741292
41.1741,2.740432
41.7796,2.740702
42.3851,2.739821
42.9906,2.739957
43.5961,2.738876
44.2016,2.73756
44.8071,2.737592
45.4126,2.739334
46.0181,2.738038
46.6236,2.735922
47.2291,2.732965
47.8346,2.733725
48.4401,2.735041
49.0456,2.732348
49.6511,2.733847
50.2566,2.732675
50.8621,2.733121
51.4676,2.732518
52.0731,2.731935
52.6786,2.730358
53.2841,2.730676
53.8896,2.729719
54.4951,2.729599
55.1006,2.728458
55.7061,2.727557
56.3116,2.727296
56.9171,2.726307
57.5226,2.725529
58.1281,2.725499
58.7336,2.724857
59.3391,2.724276
59.9446,2.723377
60.5501,2.723059
61.1556,2.723207
61.7611,2.723191
62.3666,2.723074
62.9721,2.722183
63.5776,2.721139
64.1831,2.722372
64.7886,2.720105
65.3941,2.71964
65.9996,2.717731
66.6051,2.717499
67.2106,2.714636
67.8161,2.71626
68.4216,2.716443
69.0271,2.7181
69.6326,2.715977
70.2381,2.718032
70.8436,2.715569
71.4491,2.715649
72.0546,2.713684
72.6601,2.713184
73.2656,2.709896
73.8711,2.707662
74.4766,2.709029
75.0821,2.706553
75.6876,2.705604
76.2931,2.702582
76.8986,2.701432
77.5041,2.703196
78.1096,2.697382
78.7151,2.697973
79.3206,2.697143
79.9261,2.694821
80.5316,2.693531
81.1371,2.691352
81.7426,2.692215
82.3481,2.687628
82.9536,2.68899
83.5591,2.687454
84.1646,2.685437
84.7701,2.683506
85.3756,2.684145
85.9811,2.679839
86.5866,2.680889
87.1921,2.678812
87.7976,2.675726
88.4031,2.673444
89.0086,2.673266
89.6141,2.670354
90.2196,2.672315
90.8251,2.670456
91.4306,2.664777
92.0361,2.664761
92.6416,2.66315
93.2471,2.660579
93.8526,2.657606
94.4581,2.658437
95.0636,2.655403
95.6691,2.655564
96.2746,2.655054
96.8801,2.651628
97.4856,2.650324
98.0911,2.647308
98.6967,2.648018
99.3022,2.642875
99.9077,2.644869
100.513,2.645935
101.119,2.642343
101.724,2.639086
102.33,2.639983
102.935,2.635746
103.541,2.637066
104.146,2.635265
104.752,2.632126
105.357,2.63286
105.963,2.631358
106.568,2.628395
107.174,2.63081
107.779,2.626806
108.385,2.625535
108.99,2.626309
109.596,2.625411
110.201,2.623173
110.807,2.621483
111.412,2.620053
112.018,2.617615
112.623,2.617088
113.229,2.613904
113.834,2.610829
114.44,2.611878
115.045,2.607354
115.651,2.60365
116.256,2.605943
116.862,2.604996
117.467,2.601914
118.073,2.599945
118.678,2.598204
119.284,2.598213
119.889,2.595359
120.495,2.594764
121.1,2.591539
121.706,2.589161
122.311,2.586466
122.917,2.585701
123.522,2.585057
124.128,2.580671
124.733,2.581786
125.339,2.579512
125.944,2.579334
126.55,2.577945
127.155,2.576595
127.761,2.573775
128.366,2.57417
128.972,2.571422
129.577,2.568488
130.183,2.56626
130.788,2.563952
131.394,2.561888
131.999,2.557609
132.605,2.555804
133.21,2.551667
133.816,2.550585
134.421,2.546237
135.027,2.544086
135.632,2.542295
136.238,2.538839
136.843,2.535168
137.449,2.532575
138.054,2.530124
138.66,2.528323
139.265,2.5241
139.871,2.519726
140.476,2.51553
141.082,2.513456
141.687,2.511337
142.293,2.508778
142.898,2.504558
143.504,2.504729
144.109,2.500454
144.715,2.496035
145.32,2.491946
145.926,2.488924
146.531,2.484928
147.137,2.484081
147.742,2.482119
148.348,2.479344
148.953,2.473574
149.559,2.472648
150.164,2.469553
150.77,2.466529
151.375,2.461876
151.981,2.458652
152.586,2.454637
153.192,2.451137
153.797,2.447532
154.403,2.444937
155.008,2.440986
155.614,2.434428
156.219,2.430928
156.825,2.426745
157.43,2.422785
158.036,2.418904
158.641,2.411546
159.247,2.407266
159.852,2.401874
160.458,2.399092
161.063,2.394257
161.669,2.390726
162.274,2.384112
162.88,2.377857
163.485,2.36703
164.091,2.357968
164.696,2.334754
165.302,2.32685
165.907,2.317049
166.513,2.311348
167.118,2.30043
167.724,2.291349
168.329,2.290363
168.935,2.280775
169.54,2.27763
170.146,2.267099
170.751,2.265119
171.357,2.258129
171.962,2.254751
172.568,2.249894
173.173,2.242444
173.779,2.236422
174.384,2.2318
174.99,2.222746
175.595,2.218217
176.201,2.211964
176.806,2.206946
177.412,2.204696
178.017,2.198449
178.623,2.195783
179.228,2.191522
179.834,2.188205
180.439,2.18336
181.045,2.178917
181.458,2.176783