File: processed_data/40.0mA1msec-0.2mA9msec.csv
Capacity_mAh,Voltage_V
0.0,2.925658
0.661834,2.888276
1.32367,2.826591
1.9855,2.794472
2.64734,2.781169
3.30917,2.774576
3.97101,2.769561
4.63284,2.765631
5.29467,2.762434
5.95651,2.759809
6.61834,2.757214
7.28018,2.755936
7.94201,2.754532
8.60385,2.752361
9.26568,2.750228
9.92752,2.749412
10.5893,2.748016
11.2512,2.747641
11.913,2.745965
12.5749,2.745812
13.2367,2.746274
13.8985,2.745821
14.5604,2.745124
15.2222,2.744057
15.884,2.743118
16.5459,2.740879
17.2077,2.740318
17.8695,2.739949
18.5314,2.738785
19.1932,2.738384
19.855,2.737178
20.5169,2.736754
21.1787,2.736627
21.8405,2.736204
22.5024,2.735517
23.1642,2.734604
23.826,2.733154
24.4879,2.731847
25.1497,2.731104
25.8115,2.729322
26.4734,2.72838
27.1352,2.727248
27.797,2.726131
28.4589,2.725716
29.1207,2.724245
29.7825,2.723959
30.4444,2.72329
31.1062,2.722142
31.768,2.720882
32.4299,2.71865
33.0917,2.717159
33.7536,2.71701
34.4154,2.716065
35.0772,2.715592
35.7391,2.714365
36.4009,2.712901
37.0627,2.711165
37.7246,2.710477
38.3864,2.71003
39.0482,2.708689
39.7101,2.708008
40.3719,2.706861
41.0337,2.705592
41.6956,2.704086
42.3574,2.703321
43.0192,2.702244
43.6811,2.700388
44.3429,2.700327
45.0047,2.699316
45.6666,2.697762
46.3284,2.696173
46.9902,2.695373
47.6521,2.694007
48.3139,2.693113
48.9757,2.692115
49.6376,2.689787
50.2994,2.688672
50.9612,2.688027
51.6231,2.686789
52.2849,2.685306
52.9467,2.683291
53.6086,2.682383
54.2704,2.680284
54.9323,2.679773
55.5941,2.678511
56.2559,2.67615
56.9178,2.67422
57.5796,2.673196
58.2414,2.671873
58.9033,2.670296
59.5651,2.668589
60.2269,2.667386
60.8888,2.664767
61.5506,2.66366
62.2124,2.662256
62.8743,2.660685
63.5361,2.659103
64.1979,2.656981
64.8598,2.655385
65.5216,2.654117
66.1834,2.651667
66.8453,2.650116
67.5071,2.648965
68.1689,2.647061
68.8308,2.64488
69.4926,2.64316
70.1544,2.641595
70.8163,2.639122
71.4781,2.636971
72.1399,2.634711
72.8018,2.632527
73.4636,2.630772
74.1254,2.628262
74.7873,2.626798
75.4491,2.624326
76.1109,2.621682
76.7728,2.619781
77.4346,2.617602
78.0965,2.61431
78.7583,2.611449
79.4201,2.608935
80.082,2.606337
80.7438,2.60365
81.4056,2.601452
82.0675,2.598571
82.7293,2.595917
83.3911,2.593183
84.053,2.591381
84.7148,2.587922
85.3766,2.585134
86.0385,2.58235
86.7003,2.579226
87.3621,2.577635
88.024,2.574023
88.6858,2.571472
89.3476,2.568287
90.0095,2.565492
90.6713,2.562311
91.3331,2.558694
91.995,2.555657
92.6568,2.552297
93.3186,2.548196
93.9805,2.544406
94.6423,2.541379
95.3041,2.53759
95.966,2.534208
96.6278,2.530753
97.2896,2.526949
97.9515,2.52294
98.6133,2.519424
99.2752,2.515343
99.937,2.510777
100.599,2.506403
101.261,2.502925
101.922,2.498682
102.584,2.49371
103.246,2.489855
103.908,2.485631
104.57,2.480222
105.232,2.476402
105.893,2.47168
106.555,2.46704
107.217,2.46217
107.879,2.457046
108.541,2.452013
109.203,2.447189
109.865,2.441803
110.526,2.437238
111.188,2.430881
111.85,2.425451
112.512,2.419019
113.174,2.413342
113.836,2.406876
114.497,2.400778
115.159,2.394514
115.821,2.387253
116.483,2.381513
117.145,2.373553
117.807,2.365163
118.468,2.357661
119.13,2.348538
119.792,2.340888
120.454,2.332292
121.116,2.323223
121.778,2.314575
122.439,2.304279
123.101,2.293546
123.763,2.282353
124.425,2.271235
125.087,2.259372
125.749,2.246583
126.41,2.232655
127.072,2.217357
127.734,2.201715
128.396,2.184725
129.058,2.166365
129.72,2.154555
130.381,2.152827
131.043,2.151788
131.705,2.15132
132.367,2.151099
133.029,2.1504
133.691,2.149626
134.352,2.1488
135.014,2.148035
135.676,2.146742
136.338,2.145707
137,2.028492
137.662,1.958934
138.323,1.894116
138.985,1.827263
139.647,1.757899
140.309,1.688299
140.971,1.618784
141.633,1.549537
142.294,1.483644
142.956,1.42012
143.618,1.359847
144.28,1.302028
144.942,1.241883
145.604,1.134117
146.265,1.070356
146.927,1.034869
147.589,1.014738
148.251,1.00011
148.913,0.990174
149.575,0.981137
150.236,0.974485
150.898,0.968251
151.56,0.964262
152.222,0.959703
152.884,0.956791
153.546,0.954683
154.207,0.950468
154.869,0.948032
155.531,0.946606
156.193,0.945262
156.855,0.943128
157.517,0.942566
158.178,0.941464
158.84,0.940318
159.502,0.939008
160.164,0.937792
160.826,0.937503
161.488,0.937609
162.149,0.937024
162.811,0.936412
163.473,0.936232
164.135,0.936493
164.797,0.935761
165.459,0.936211
166.12,0.934661
166.782,0.93475
167.444,0.933436
168.106,0.933885
168.768,0.933834
169.43,0.933892
170.091,0.933392
170.753,0.933046
171.415,0.932364
172.077,0.932643
172.739,0.931716
173.401,0.931134
174.062,0.930104
174.724,0.928995
175.386,0.928128
176.048,0.926932
176.71,0.926124
177.372,0.925017
178.033,0.923605
178.695,0.921804
179.357,0.920481
180.019,0.918439
180.681,0.917589
181.343,0.915831
182.004,0.914376
182.666,0.913409
183.328,0.912673
183.99,0.910725
184.652,0.908502
185.314,0.907095
185.975,0.904657
186.637,0.902749
187.299,0.900896
187.961,0.898639
188.623,0.898574
189.285,0.895742
189.946,0.893788
190.608,0.892551
191.27,0.890375
191.932,0.889617
192.594,0.886723
193.256,0.884561
193.917,0.883129
194.579,0.881338
195.241,0.880287
195.903,0.878596
196.565,0.87721
197.227,0.874877
197.494,0.873442