File: processed_data/40.0mA2msec-0.2mA18msec.csv
Capacity_mAh,Voltage_V
0.0,3.132388
0.661834,2.882257
1.32367,2.814207
1.9855,2.78017
2.64734,2.76539
3.30917,2.756662
3.97101,2.748448
4.63284,2.742105
5.29467,2.735568
5.95651,2.730018
6.61834,2.726444
7.28018,2.722922
7.94201,2.720273
8.60385,2.717986
9.26568,2.716615
9.92752,2.715459
10.5893,2.714824
11.2512,2.714828
11.913,2.714158
12.5749,2.714211
13.2367,2.713426
13.8985,2.713748
14.5604,2.71335
15.2222,2.714118
15.884,2.713818
16.5459,2.712979
17.2077,2.712575
17.8695,2.712753
18.5314,2.712841
19.1932,2.712796
19.855,2.712291
20.5169,2.711102
21.1787,2.711342
21.8405,2.710891
22.5024,2.710898
23.1642,2.711515
23.826,2.711104
24.4879,2.710017
25.1497,2.709067
25.8115,2.707849
26.4734,2.706794
27.1352,2.706051
27.797,2.705501
28.4589,2.704515
29.1207,2.703929
29.7825,2.702538
30.4444,2.702303
31.1062,2.701376
31.768,2.701128
32.4299,2.700529
33.0917,2.700238
33.7536,2.698617
34.4154,2.696688
35.0772,2.694986
35.7391,2.694654
36.4009,2.69422
37.0627,2.694058
37.7246,2.693048
38.3864,2.691746
39.0482,2.691116
39.7101,2.6893
40.3719,2.688195
41.0337,2.686745
41.6956,2.684486
42.3574,2.683788
43.0192,2.682133
43.6811,2.681033
44.3429,2.680552
45.0047,2.678644
45.6666,2.676883
46.3284,2.675136
46.9902,2.673245
47.6521,2.672372
48.3139,2.669687
48.9757,2.668096
49.6376,2.66608
50.2994,2.66458
50.9612,2.663031
51.6231,2.662402
52.2849,2.660747
52.9467,2.659126
53.6086,2.656456
54.2704,2.654493
54.9323,2.653677
55.5941,2.651769
56.2559,2.650012
56.9178,2.647965
57.5796,2.645189
58.2414,2.64363
58.9033,2.641413
59.5651,2.639366
60.2269,2.637526
60.8888,2.637514
61.5506,2.635494
62.2124,2.632852
62.8743,2.63093
63.5361,2.628516
64.1979,2.626327
64.8598,2.625245
65.5216,2.623733
66.1834,2.622672
66.8453,2.619724
67.5071,2.617965
68.1689,2.615407
68.8308,2.612003
69.4926,2.609219
70.1544,2.606343
70.8163,2.603492
71.4781,2.601018
72.1399,2.597939
72.8018,2.595197
73.4636,2.59223
74.1254,2.589385
74.7873,2.586975
75.4491,2.584926
76.1109,2.583449
76.7728,2.581295
77.4346,2.578864
78.0965,2.576977
78.7583,2.574707
79.4201,2.570458
80.082,2.567631
80.7438,2.565293
81.4056,2.563521
82.0675,2.562002
82.7293,2.560476
83.3911,2.557786
84.053,2.555077
84.7148,2.552793
85.3766,2.549727
86.0385,2.547288
86.7003,2.544725
87.3621,2.541689
88.024,2.538879
88.6858,2.536343
89.3476,2.53291
90.0095,2.529604
90.6713,2.52577
91.3331,2.521684
91.995,2.518763
92.6568,2.51503
93.3186,2.512342
93.9805,2.50929
94.6423,2.505948
95.3041,2.501769
95.966,2.497596
96.6278,2.49345
97.2896,2.489724
97.9515,2.485196
98.6133,2.480974
99.2752,2.477276
99.937,2.47221
100.599,2.467737
101.261,2.46253
101.922,2.458656
102.584,2.4536
103.246,2.447759
103.908,2.440398
104.57,2.432671
105.232,2.426273
105.893,2.419744
106.555,2.412951
107.217,2.405677
107.879,2.399206
108.541,2.393341
109.203,2.389469
109.865,2.384246
110.526,2.377992
111.188,2.372563
111.85,2.365469
112.512,2.357813
113.174,2.35041
113.836,2.342656
114.497,2.334858
115.159,2.325867
115.821,2.316844
116.483,2.306809
117.145,2.296672
117.807,2.286042
118.468,2.274814
119.13,2.263524
119.792,2.252146
120.454,2.238293
121.116,2.224616
121.778,2.2095
122.439,2.194351
123.101,2.177628
123.763,2.153326
124.425,2.139064
125.087,2.118798
125.749,2.094631
126.41,2.066482
127.072,2.036778
127.734,2.003626
128.396,1.966585
129.058,1.925113
129.72,1.879753
130.381,1.828215
131.043,1.77243
131.705,1.712824
132.367,1.648838
133.029,1.581623
133.691,1.515592
134.352,1.449784
135.014,1.386392
135.676,1.327262
136.338,1.269454
137,1.215365
137.662,1.14314
138.323,1.066531
138.985,1.04023
139.647,1.024227
140.309,1.014299
140.971,1.007609
141.633,1.001728
142.294,0.997005
142.956,0.995613
143.618,0.994758
144.28,0.994136
144.942,0.994478
145.604,0.994479
146.265,0.995658
146.927,0.99616
147.589,0.996499
148.251,0.998051
148.913,1.000526
149.575,1.003194
150.236,1.004929
150.898,1.007211
151.56,1.010014
152.222,1.012657
152.884,1.015587
153.546,1.018393
154.207,1.020753
154.869,1.023398
155.531,1.026694
156.193,1.028529
156.855,1.031646
157.517,1.033852
158.178,1.037249
158.84,1.038851
159.502,1.041851
160.164,1.043595
160.826,1.046098
161.488,1.048696
162.149,1.050699
162.811,1.053265
163.473,1.055201
164.135,1.057491
164.797,1.059663
165.459,1.062344
166.12,1.064465
166.782,1.067208
167.444,1.070106
168.106,1.072519
168.768,1.07421
169.43,1.075881
170.091,1.077195
170.753,1.079058
171.415,1.080751
172.077,1.081331
172.739,1.082681
173.401,1.083668
174.062,1.08413
174.724,1.084894
175.386,1.086374
176.048,1.086966
176.71,1.087867
177.372,1.088006
178.033,1.088304
178.695,1.088668
179.357,1.087966
180.019,1.088184
180.681,1.088596
181.343,1.088473
182.004,1.088655
182.666,1.088796
183.328,1.088064
183.99,1.087716
184.652,1.085979
185.314,1.085316
185.975,1.084762
186.637,1.084525
187.299,1.083019
187.961,1.082231
188.623,1.08131
189.285,1.080222
189.946,1.078296
190.608,1.077771
191.27,1.076346
191.932,1.074876
192.594,1.073867
193.256,1.072973
193.917,1.0714
194.579,1.069305
195.241,1.067653
195.903,1.06628
196.565,1.064643
197.227,1.063538
197.395,1.06306