File: processed_data/40.0mA8msec-0.2mA12msec.csv
Capacity_mAh,Voltage_V
0.0,2.65561
3.60462,2.47071
7.20923,2.45106
10.8138,2.43129
14.4185,2.39351
18.0231,2.33586
21.6277,2.23404
25.2323,2.03669
28.8369,1.58566
32.4415,0.91643
36.0462,0.577623
39.6508,0.315609
43.2554,0.286916
46.86,0.272031
50.4646,0.262859
54.0692,0.257268
57.6739,0.252342
61.2785,0.249633
64.8831,0.24711
68.4877,0.246453
72.0923,0.246105
75.6969,0.247392
79.3016,0.249297
82.9062,0.252843
86.5108,0.254741
90.1154,0.255841
93.72,0.26068
97.3246,0.265892
100.929,0.271254
104.534,0.277484
108.138,0.283999
111.743,0.290875
115.348,0.29872
118.952,0.306539
122.557,0.314975
126.162,0.324934
129.766,0.334682
133.371,0.344143
136.975,0.352905
140.58,0.361278
144.185,0.368427
147.789,0.374469
151.394,0.379608
154.999,0.384786
158.603,0.387628
162.208,0.386588
165.812,0.388647
169.417,0.389553
173.022,0.390088
176.626,0.389969
180.231,0.390825
183.835,0.390801
187.44,0.390661
191.045,0.390338
194.649,0.389832
198.254,0.389071
201.859,0.387788
205.463,0.386148
209.068,0.384851
212.672,0.383004
216.277,0.380797
219.882,0.379228
223.486,0.377456
227.091,0.375343
230.695,0.373341
234.3,0.371068
237.905,0.368904
241.509,0.366916
245.114,0.364684
248.719,0.362939
252.323,0.360922
255.928,0.359448
259.532,0.356432
263.137,0.355143
266.742,0.352869
270.346,0.350693
273.951,0.349216
277.555,0.347032
281.16,0.344838
284.765,0.343345
288.369,0.341679
291.974,0.356969
295.579,0.4254
299.183,0.416826
302.788,0.386942
306.392,0.359167
309.997,0.337002
313.602,0.320976
317.206,0.308438
320.811,0.299357
324.415,0.292241
328.02,0.286328
331.625,0.280845
335.229,0.275992
338.834,0.271804
342.439,0.267281
346.043,0.259013
349.648,0.257129
353.252,0.252394
356.857,0.247857
360.462,0.246339
364.066,0.237017
367.671,0.240116
371.276,0.235561
374.88,0.231466
378.485,0.230527
382.089,0.228712
385.694,0.220834
389.299,0.22491
392.903,0.224566
396.508,0.214131
400.112,0.219551
403.717,0.221847
407.322,0.2181
410.926,0.219742
414.531,0.219353
418.136,0.218198
421.74,0.209833
425.345,0.213976
428.949,0.223152
432.554,0.220348
436.159,0.210976
439.763,0.22078
443.368,0.21891
446.972,0.213491
450.577,0.214878
454.182,0.21974
457.786,0.217386
461.391,0.210643
464.996,0.215175
468.6,0.217084
472.205,0.217024
475.809,0.2085
479.414,0.213274
483.019,0.214947
486.623,0.214058
490.228,0.205693
493.832,0.212268
497.437,0.213098
501.042,0.209911
504.646,0.204005
508.251,0.210315
511.856,0.209804
515.46,0.208119
519.065,0.201545
522.669,0.207991
526.274,0.208395
529.879,0.206162
533.483,0.200225
537.088,0.206078
540.692,0.206101
544.297,0.205395
547.902,0.196957
551.506,0.202712
555.111,0.203247
558.716,0.201181
562.32,0.194741
565.925,0.200442
569.529,0.199962
573.134,0.19738
576.739,0.19182
580.343,0.197497
583.948,0.197407
587.553,0.196564
591.157,0.188754
594.762,0.193526
598.366,0.193511
601.971,0.191693
605.576,0.193574
609.18,0.181289
612.785,0.002912
616.389,0.0027395
619.994,0.00190139
623.599,0.00228179
627.203,0.00260857
630.808,0.00222401
634.413,0.0022939
638.017,0.00215763
641.622,0.00228659
645.226,0.00211689
648.831,0.00233175
652.436,0.00266357
656.04,0.00232978
659.645,0.00206258
663.249,0.00288562
666.854,0.00213992
670.459,0.00229182
674.063,0.00262452
677.668,0.00293034
681.273,0.00262254
684.877,0.00275332
688.482,0.0021613
692.086,0.00303279
695.691,0.00292198
699.296,0.00265719
702.9,0.00241727
706.505,0.00255278
710.109,0.00270104
713.714,0.00199759
717.319,0.00259874
720.923,0.00277939
724.528,0.00256732
728.133,0.00295519
731.737,0.00245205
735.342,0.00249398
738.946,0.00256221
742.551,0.00208415
746.156,0.00248741
749.76,0.00213889
753.365,0.00250936
756.969,0.00233315
760.574,0.00269411
764.179,0.00263607
767.783,0.00232488
771.388,0.00249595
774.993,0.00255508
778.597,0.00296871
782.202,0.0026195
785.806,0.00232693
789.411,0.00304764
793.016,0.00286621
796.62,0.00253081
800.225,0.00260547
803.83,0.00258828
807.434,0.00259307
811.039,0.00202807
814.643,0.00192491
818.248,0.00232761
821.853,0.00236114
825.457,0.00241359
829.062,0.00272452
832.666,0.00190797
836.271,0.00208542
839.876,0.002439
843.48,0.00192098
847.085,0.00246629
850.69,0.00232172
854.294,0.00233817
857.899,0.00221474
861.503,0.0023881
865.108,0.00252163
868.713,0.00264317
872.317,0.00247328
875.922,0.00208887
879.526,0.00213398
883.131,0.00274098
886.736,0.00206909
890.34,0.00240017
893.945,0.00225363
897.55,0.00227699
901.154,0.00279595
904.759,0.00269114
908.363,0.00282081
911.968,0.00238326
915.573,0.00287269
919.177,0.00228114
922.782,0.00205048
926.386,0.00185477
929.991,0.00200965
933.596,0.00192356
937.2,0.00230655
940.805,0.00235506
944.41,0.0021392
948.014,0.00229879
951.619,0.00267303
955.223,0.00246631
958.828,0.00190252
962.433,0.00238722
966.037,0.00210998
969.642,0.00232598
973.246,0.00251336
976.851,0.00213806
980.456,0.00204753
984.06,0.00280968
987.665,0.00251465
991.27,0.00292372
994.874,0.00242785
998.479,0.00236479
1002.08,0.00245232
1005.69,0.00223367
1009.29,0.00202105
1012.9,0.00184615
1016.5,0.00216079
1020.11,0.00226722
1023.71,0.00266167
1027.32,0.00260334
1030.92,0.00238951
1034.52,0.00226136
1038.13,0.00176331
1041.73,0.00205406
1045.34,0.00208356
1048.94,0.00223065
1052.55,0.00257739
1056.15,0.00192916
1059.76,0.00201495
1063.36,0.0023193
1066.97,0.00200531
1070.57,0.00207863
1074.18,0.00234342
1075.63,0.00255548