File: processed_data/40.0mA3msec-0.2mA27msec.csv
Capacity_mAh,Voltage_V
0.0,3.15192
0.661834,2.844211
1.32367,2.777052
1.9855,2.746324
2.64734,2.735743
3.30917,2.72807
3.97101,2.719053
4.63284,2.708832
5.29467,2.697961
5.95651,2.689559
6.61834,2.688553
7.28018,2.68441
7.94201,2.685805
8.60385,2.684786
9.26568,2.687074
9.92752,2.687507
10.5893,2.683707
11.2512,2.682054
11.913,2.686666
12.5749,2.684451
13.2367,2.684071
13.8985,2.683775
14.5604,2.688106
15.2222,2.691542
15.884,2.69242
16.5459,2.693649
17.2077,2.697205
17.8695,2.698925
18.5314,2.700465
19.1932,2.701788
19.855,2.702578
20.5169,2.702649
21.1787,2.70273
21.8405,2.703461
22.5024,2.702223
23.1642,2.701262
23.826,2.699948
24.4879,2.697594
25.1497,2.696841
25.8115,2.6949
26.4734,2.694911
27.1352,2.694561
27.797,2.69363
28.4589,2.692357
29.1207,2.691706
29.7825,2.68952
30.4444,2.687429
31.1062,2.687486
31.768,2.686882
32.4299,2.684121
33.0917,2.68534
33.7536,2.684357
34.4154,2.685479
35.0772,2.684308
35.7391,2.683112
36.4009,2.68067
37.0627,2.676998
37.7246,2.67785
38.3864,2.6763
39.0482,2.674648
39.7101,2.673689
40.3719,2.670955
41.0337,2.670432
41.6956,2.668458
42.3574,2.667934
43.0192,2.666318
43.6811,2.665814
44.3429,2.665036
45.0047,2.66466
45.6666,2.663033
46.3284,2.65958
46.9902,2.658635
47.6521,2.657892
48.3139,2.656372
48.9757,2.655577
49.6376,2.653229
50.2994,2.650368
50.9612,2.648739
51.6231,2.64737
52.2849,2.645605
52.9467,2.644236
53.6086,2.643068
54.2704,2.642061
54.9323,2.639297
55.5941,2.637485
56.2559,2.635141
56.9178,2.63283
57.5796,2.630958
58.2414,2.628595
58.9033,2.625728
59.5651,2.625221
60.2269,2.621986
60.8888,2.619328
61.5506,2.618927
62.2124,2.61691
62.8743,2.615006
63.5361,2.611333
64.1979,2.609535
64.8598,2.607286
65.5216,2.60463
66.1834,2.601245
66.8453,2.598846
67.5071,2.597345
68.1689,2.594655
68.8308,2.591905
69.4926,2.589126
70.1544,2.586756
70.8163,2.584055
71.4781,2.581368
72.1399,2.579367
72.8018,2.576815
73.4636,2.572907
74.1254,2.570343
74.7873,2.567182
75.4491,2.563691
76.1109,2.56044
76.7728,2.55768
77.4346,2.554674
78.0965,2.550983
78.7583,2.548592
79.4201,2.545364
80.082,2.542402
80.7438,2.538391
81.4056,2.535005
82.0675,2.531157
82.7293,2.527891
83.3911,2.524953
84.053,2.520552
84.7148,2.517465
85.3766,2.513751
86.0385,2.509184
86.7003,2.50601
87.3621,2.501805
88.024,2.497044
88.6858,2.493335
89.3476,2.488461
90.0095,2.482878
90.6713,2.477516
91.3331,2.472551
91.995,2.466534
92.6568,2.463374
93.3186,2.459677
93.9805,2.454273
94.6423,2.448564
95.3041,2.441816
95.966,2.436036
96.6278,2.429289
97.2896,2.42246
97.9515,2.41593
98.6133,2.410086
99.2752,2.40178
99.937,2.394563
100.599,2.386925
101.261,2.379167
101.922,2.370705
102.584,2.36157
103.246,2.352261
103.908,2.341217
104.57,2.330692
105.232,2.319158
105.893,2.307801
106.555,2.294491
107.217,2.280913
107.879,2.266261
108.541,2.251677
109.203,2.235796
109.865,2.220422
110.526,2.205352
111.188,2.188813
111.85,2.161235
112.512,2.141748
113.174,2.116522
113.836,2.089608
114.497,2.060731
115.159,2.0279
115.821,1.992116
116.483,1.952785
117.145,1.907736
117.807,1.858839
118.468,1.805641
119.13,1.747059
119.792,1.687129
120.454,1.622143
121.116,1.557047
121.778,1.490069
122.439,1.426317
123.101,1.367833
123.763,1.312386
124.425,1.261079
125.087,1.211931
125.749,1.168359
126.41,1.126173
127.072,1.084901
127.734,1.047421
128.396,1.012522
129.058,0.980225
129.72,0.937724
130.381,0.924405
131.043,0.915791
131.705,0.90963
132.367,0.906417
133.029,0.906273
133.691,0.904937
134.352,0.905625
135.014,0.906346
135.676,0.907123
136.338,0.909152
137,0.910686
137.662,0.912652
138.323,0.913037
138.985,0.91439
139.647,0.918288
140.309,0.922546
140.971,0.923718
141.633,0.927151
142.294,0.932515
142.956,0.937528
143.618,0.942411
144.28,0.948568
144.942,0.953652
145.604,0.957951
146.265,0.962768
146.927,0.965841
147.589,0.969694
148.251,0.973757
148.913,0.978043
149.575,0.982589
150.236,0.988367
150.898,0.993585
151.56,0.998529
152.222,1.002379
152.884,1.007887
153.546,1.012941
154.207,1.018639
154.869,1.024418
155.531,1.030019
156.193,1.035855
156.855,1.042498
157.517,1.046837
158.178,1.052481
158.84,1.056419
159.502,1.061183
160.164,1.065241
160.826,1.070612
161.488,1.075453
162.149,1.080906
162.811,1.084762
163.473,1.088417
164.135,1.093041
164.797,1.09702
165.459,1.100225
166.12,1.104917
166.782,1.110652
167.444,1.115153
168.106,1.118787
168.768,1.123109
169.43,1.128174
170.091,1.132127
170.753,1.135178
171.415,1.139114
172.077,1.14237
172.739,1.144551
173.401,1.147992
174.062,1.151468
174.724,1.153648
175.386,1.156895
176.048,1.159264
176.71,1.161772
177.372,1.164964
178.033,1.167238
178.695,1.168549
179.357,1.171758
180.019,1.17306
180.681,1.174562
181.343,1.176747
182.004,1.179562
182.666,1.180215
183.328,1.182677
183.99,1.183526
184.652,1.184347
185.314,1.185064
185.975,1.185982
186.637,1.185796
187.299,1.186697
187.961,1.187411
188.623,1.187264
189.285,1.186902
189.946,1.186639
190.608,1.186438
191.27,1.186669
191.932,1.185436
192.594,1.184377
193.256,1.184098
193.917,1.184694
194.579,1.182996
195.241,1.181599
195.903,1.180113
196.565,1.179201
197.227,1.178392
197.441,1.177871