File: processed_data/40.0mA1msec-0.2mA19msec.csv
Capacity_mAh,Voltage_V
0.0,3.132913
0.526209,2.93056
1.05242,2.876791
1.57863,2.845032
2.10484,2.825288
2.63105,2.814316
3.15725,2.808494
3.68346,2.805079
4.20967,2.803285
4.73588,2.80155
5.26209,2.801494
5.7883,2.80012
6.31451,2.799164
6.84072,2.795608
7.36693,2.798557
7.89314,2.798042
8.41935,2.797205
8.94556,2.797012
9.47176,2.795947
9.99797,2.796326
10.5242,2.796427
11.0504,2.794336
11.5766,2.794519
12.1028,2.795859
12.629,2.792841
13.1552,2.793676
13.6814,2.79299
14.2076,2.793221
14.7339,2.794572
15.2601,2.790776
15.7863,2.792296
16.3125,2.793716
16.8387,2.793064
17.3649,2.79055
17.8911,2.793281
18.4173,2.794854
18.9435,2.790505
19.4697,2.791686
19.9959,2.794321
20.5222,2.795598
21.0484,2.795952
21.5746,2.795014
22.1008,2.794874
22.627,2.793673
23.1532,2.791171
23.6794,2.791578
24.2056,2.794198
24.7318,2.787755
25.258,2.794439
25.7842,2.793438
26.3105,2.79317
26.8367,2.792917
27.3629,2.79169
27.8891,2.79097
28.4153,2.790445
28.9415,2.789397
29.4677,2.78839
29.9939,2.790002
30.5201,2.789517
31.0463,2.788712
31.5725,2.78846
32.0988,2.788226
32.625,2.78704
33.1512,2.785789
33.6774,2.785066
34.2036,2.784169
34.7298,2.783973
35.256,2.783874
35.7822,2.781982
36.3084,2.779605
36.8346,2.779427
37.3608,2.779242
37.8871,2.780784
38.4133,2.781543
38.9395,2.781128
39.4657,2.780661
39.9919,2.780461
40.5181,2.779668
41.0443,2.780154
41.5705,2.779168
42.0967,2.779411
42.6229,2.778521
43.1491,2.778463
43.6754,2.778091
44.2016,2.777927
44.7278,2.777081
45.254,2.776814
45.7802,2.776527
46.3064,2.776455
46.8326,2.77518
47.3588,2.774978
47.885,2.773209
48.4112,2.772492
48.9374,2.771123
49.4637,2.770408
49.9899,2.769862
50.5161,2.768598
51.0423,2.768058
51.5685,2.767622
52.0947,2.766404
52.6209,2.765548
53.1471,2.765017
53.6733,2.764366
54.1995,2.764077
54.7258,2.76347
55.252,2.763061
55.7782,2.762983
56.3044,2.762531
56.8306,2.761468
57.3568,2.760852
57.883,2.760978
58.4092,2.760225
58.9354,2.759498
59.4616,2.759185
59.9878,2.758587
60.5141,2.75845
61.0403,2.758562
61.5665,2.757579
62.0927,2.757182
62.6189,2.756916
63.1451,2.756326
63.6713,2.755771
64.1975,2.754366
64.7237,2.753426
65.2499,2.752799
65.7761,2.75239
66.3024,2.751215
66.8286,2.750377
67.3548,2.749673
67.881,2.748779
68.4072,2.747954
68.9334,2.747329
69.4596,2.746508
69.9858,2.745663
70.512,2.744845
71.0382,2.743644
71.5644,2.742497
72.0907,2.74171
72.6169,2.740836
73.1431,2.739995
73.6693,2.739478
74.1955,2.738481
74.7217,2.73719
75.2479,2.736328
75.7741,2.73549
76.3003,2.734893
76.8265,2.734542
77.3527,2.733633
77.879,2.733207
78.4052,2.732567
78.9314,2.732369
79.4576,2.73144
79.9838,2.731168
80.51,2.730153
81.0362,2.729045
81.5624,2.728772
82.0886,2.728291
82.6148,2.727785
83.141,2.726261
83.6673,2.726163
84.1935,2.72508
84.7197,2.724744
85.2459,2.723737
85.7721,2.722958
86.2983,2.722076
86.8245,2.721689
87.3507,2.721417
87.8769,2.721213
88.4031,2.719974
88.9293,2.719769
89.4556,2.71852
89.9818,2.718731
90.508,2.717858
91.0342,2.716505
91.5604,2.715595
92.0866,2.714242
92.6128,2.712366
93.139,2.712738
93.6652,2.71058
94.1914,2.711568
94.7176,2.710994
95.2439,2.707987
95.7701,2.709251
96.2963,2.708886
96.8225,2.707256
97.3487,2.706253
97.8749,2.704756
98.4011,2.704314
98.9273,2.703387
99.4535,2.702358
99.9797,2.70234
100.506,2.70091
101.032,2.700067
101.558,2.69871
102.085,2.697973
102.611,2.696888
103.137,2.694965
103.663,2.691483
104.189,2.691998
104.716,2.691586
105.242,2.691252
105.768,2.691188
106.294,2.69106
106.82,2.690816
107.347,2.68865
107.873,2.68501
108.399,2.687618
108.925,2.688931
109.452,2.685581
109.978,2.685601
110.504,2.68514
111.03,2.683987
111.556,2.682589
112.083,2.682773
112.609,2.676922
113.135,2.676354
113.661,2.675029
114.187,2.674868
114.714,2.673289
115.24,2.672414
115.766,2.669489
116.292,2.668627
116.818,2.665993
117.345,2.664071
117.871,2.663251
118.397,2.661844
118.923,2.660279
119.449,2.659791
119.976,2.657884
120.502,2.653693
121.028,2.653848
121.554,2.654458
122.081,2.652289
122.607,2.652869
123.133,2.651927
123.659,2.650436
124.185,2.646116
124.712,2.644572
125.238,2.648032
125.764,2.649168
126.29,2.648989
126.816,2.647254
127.343,2.646128
127.869,2.645472
128.395,2.643815
128.921,2.639379
129.447,2.640841
129.974,2.639121
130.5,2.638844
131.026,2.637984
131.552,2.636241
132.078,2.6346
132.605,2.634112
133.131,2.633657
133.657,2.632125
134.183,2.630214
134.71,2.629844
135.236,2.627233
135.762,2.624772
136.288,2.623246
136.814,2.619443
137.341,2.616733
137.867,2.617797
138.393,2.617143
138.919,2.615301
139.445,2.612453
139.972,2.612912
140.498,2.610327
141.024,2.607284
141.55,2.606712
142.076,2.60429
142.603,2.602562
143.129,2.602779
143.655,2.603288
144.181,2.600488
144.708,2.599258
145.234,2.594562
145.76,2.593649
146.286,2.594608
146.812,2.591605
147.339,2.591145
147.865,2.590478
148.391,2.584392
148.917,2.586056
149.443,2.578139
149.97,2.578868
150.496,2.578785
151.022,2.573936
151.548,2.573338
152.074,2.571275
152.601,2.565307
153.127,2.563086
153.653,2.562533
154.179,2.559613
154.705,2.561296
155.232,2.562018
155.758,2.55489
156.284,2.552892
156.81,2.552629
157.337,2.549598
157.695,2.546571