File: processed_data/50.0mA1msec-0.2mA19msec.csv
Capacity_mAh,Voltage_V
0.0,3.185591
0.646348,2.916206
1.2927,2.850954
1.93904,2.814019
2.58539,2.796901
3.23174,2.789155
3.87809,2.785263
4.52444,2.782026
5.17079,2.778845
5.81713,2.775745
6.46348,2.774275
7.10983,2.772202
7.75618,2.769899
8.40253,2.769396
9.04887,2.76862
9.69522,2.767232
10.3416,2.766963
10.9879,2.768105
11.6343,2.767865
12.2806,2.766964
12.927,2.765701
13.5733,2.764629
14.2197,2.766361
14.866,2.765024
15.5124,2.766115
16.1587,2.765047
16.8051,2.764302
17.4514,2.764151
18.0977,2.763062
18.7441,2.762826
19.3904,2.764012
20.0368,2.765172
20.6831,2.765278
21.3295,2.76472
21.9758,2.764774
22.6222,2.766516
23.2685,2.766711
23.9149,2.765824
24.5612,2.764334
25.2076,2.765049
25.8539,2.765933
26.5003,2.767439
27.1466,2.767095
27.793,2.767629
28.4393,2.766299
29.0857,2.763551
29.732,2.76289
30.3784,2.762266
31.0247,2.761894
31.6711,2.761732
32.3174,2.759704
32.9638,2.75974
33.6101,2.759048
34.2565,2.757329
34.9028,2.756289
35.5492,2.755159
36.1955,2.754365
36.8418,2.753245
37.4882,2.752731
38.1345,2.751371
38.7809,2.750576
39.4272,2.74952
40.0736,2.746907
40.7199,2.746529
41.3663,2.746506
42.0126,2.746276
42.659,2.745432
43.3053,2.743517
43.9517,2.743524
44.598,2.742392
45.2444,2.741258
45.8907,2.741033
46.5371,2.740085
47.1834,2.739404
47.8298,2.738951
48.4761,2.738591
49.1225,2.73777
49.7688,2.737877
50.4152,2.737714
51.0615,2.736426
51.7079,2.736662
52.3542,2.736124
53.0006,2.7359
53.6469,2.735415
54.2932,2.734741
54.9396,2.734451
55.5859,2.733527
56.2323,2.732193
56.8786,2.731778
57.525,2.731374
58.1713,2.730411
58.8177,2.730047
59.464,2.729243
60.1104,2.728012
60.7567,2.726981
61.4031,2.725729
62.0494,2.724766
62.6958,2.723457
63.3421,2.722901
63.9885,2.722367
64.6348,2.717421
65.2812,2.716888
65.9275,2.716549
66.5739,2.715248
67.2202,2.716275
67.8666,2.714604
68.5129,2.713915
69.1593,2.712986
69.8056,2.706043
70.452,2.70469
71.0983,2.704002
71.7447,2.703299
72.391,2.702662
73.0373,2.702245
73.6837,2.700542
74.33,2.698602
74.9764,2.699783
75.6227,2.698492
76.2691,2.698678
76.9154,2.699695
77.5618,2.697262
78.2081,2.695717
78.8545,2.694769
79.5008,2.692327
80.1472,2.690793
80.7935,2.689797
81.4399,2.687754
82.0862,2.685705
82.7326,2.684717
83.3789,2.683326
84.0253,2.677737
84.6716,2.676835
85.318,2.67399
85.9643,2.673363
86.6107,2.674344
87.257,2.675682
87.9034,2.673841
88.5497,2.673629
89.1961,2.672158
89.8424,2.670109
90.4887,2.669377
91.1351,2.66899
91.7814,2.667786
92.4278,2.666712
93.0741,2.665032
93.7205,2.663746
94.3668,2.66156
95.0132,2.659674
95.6595,2.658593
96.3059,2.657187
96.9522,2.655286
97.5986,2.652186
98.2449,2.64935
98.8913,2.647767
99.5376,2.646119
100.184,2.643762
100.83,2.642623
101.477,2.641011
102.123,2.638198
102.769,2.637453
103.416,2.635229
104.062,2.633212
104.708,2.632338
105.355,2.630724
106.001,2.628701
106.647,2.626907
107.294,2.624362
107.94,2.621366
108.586,2.619311
109.233,2.617823
109.879,2.615454
110.526,2.613333
111.172,2.611291
111.818,2.609999
112.465,2.608402
113.111,2.607147
113.757,2.604743
114.404,2.603112
115.05,2.602123
115.696,2.599018
116.343,2.59755
116.989,2.595479
117.635,2.593618
118.282,2.591551
118.928,2.590155
119.574,2.587997
120.221,2.5854
120.867,2.582869
121.513,2.581477
122.16,2.579994
122.806,2.577269
123.453,2.574793
124.099,2.572775
124.745,2.570914
125.392,2.568565
126.038,2.56797
126.684,2.565828
127.331,2.563795
127.977,2.561673
128.623,2.553107
129.27,2.551363
129.916,2.549122
130.562,2.54629
131.209,2.544653
131.855,2.538047
132.501,2.536084
133.148,2.53338
133.794,2.535963
134.44,2.53466
135.087,2.532643
135.733,2.53011
136.379,2.527327
137.026,2.525232
137.672,2.522843
138.319,2.520115
138.965,2.517621
139.611,2.515791
140.258,2.512959
140.904,2.509435
141.55,2.506058
142.197,2.502954
142.843,2.49985
143.489,2.495089
144.136,2.493655
144.782,2.48925
145.428,2.485253
146.075,2.482
146.721,2.478424
147.367,2.474822
148.014,2.469666
148.66,2.465021
149.306,2.461283
149.953,2.457451
150.599,2.452879
151.245,2.448183
151.892,2.444273
152.538,2.440855
153.185,2.437797
153.831,2.433933
154.477,2.427823
155.124,2.42159
155.77,2.416149
156.416,2.411536
157.063,2.406537
157.709,2.400417
158.355,2.396456
159.002,2.391586
159.648,2.387245
160.294,2.382511
160.941,2.377508
161.587,2.371661
162.233,2.360106
162.88,2.342556
163.526,2.33329
164.172,2.324553
164.819,2.317474
165.465,2.308666
166.111,2.300167
166.758,2.292619
167.404,2.28441
168.051,2.279675
168.697,2.276778
169.343,2.274049
169.99,2.271694
170.636,2.270056
171.282,2.268071
171.929,2.266065
172.575,2.264255
173.221,2.262492
173.868,2.26083
174.514,2.259172
175.16,2.258588
175.807,2.256883
176.453,2.254797
177.099,2.253434
177.746,2.252114
178.392,2.250582
179.038,2.250208
179.685,2.248134
180.331,2.245614
180.977,2.244459
181.624,2.243495
182.27,2.242156
182.917,2.239894
183.563,2.238144
184.209,2.235719
184.856,2.233738
185.502,2.231931
186.148,2.229543
186.795,2.226918
187.441,2.224963
188.087,2.22202
188.734,2.219828
189.38,2.216972
190.026,2.21475
190.673,2.21212
191.319,2.209112
191.965,2.206514
192.612,2.203155
193.258,2.201064
193.699,2.19846