File: smoothed_normalized_data/12.5mA4msec-0.2mA16msec.csv
Capacity_mAh,Voltage_V
0.0,1.0
0.580029,0.966418
1.16006,0.943317
1.74009,0.928792
2.32011,0.920935
2.90014,0.918063
3.48017,0.917214
4.0602,0.916062
4.64023,0.915237
5.22026,0.914498
5.80029,0.91373
6.38032,0.913058
6.96034,0.912494
7.54037,0.911999
8.1204,0.911545
8.70043,0.911136
9.28046,0.910788
9.86049,0.910485
10.4405,0.910209
11.0205,0.909943
11.6006,0.909713
12.1806,0.909514
12.7606,0.909314
13.3407,0.909131
13.9207,0.908964
14.5007,0.908848
15.0807,0.908758
15.6608,0.908678
16.2408,0.90861
16.8208,0.908549
17.4009,0.908503
17.9809,0.908457
18.5609,0.908415
19.1409,0.908374
19.721,0.908368
20.301,0.908387
20.881,0.908284
21.4611,0.908094
22.0411,0.907933
22.6211,0.907825
23.2011,0.907765
23.7812,0.907749
24.3612,0.907746
24.9412,0.907759
25.5213,0.907694
26.1013,0.907395
26.6813,0.90697
27.2613,0.906517
27.8414,0.906017
28.4214,0.905539
29.0014,0.905156
29.5815,0.904857
30.1615,0.904745
30.7415,0.904118
31.3215,0.903225
31.9016,0.902243
32.4816,0.900865
33.0616,0.899271
33.6417,0.898152
34.2217,0.897159
34.8017,0.896229
35.3817,0.89508
35.9618,0.894052
36.5418,0.893249
37.1218,0.893239
37.7019,0.891992
38.2819,0.890845
38.8619,0.890455
39.4419,0.890544
40.022,0.890754
40.602,0.890546
41.182,0.890741
41.7621,0.891496
42.3421,0.892904
42.9221,0.893289
43.5021,0.893994
44.0822,0.894883
44.6622,0.895946
45.2422,0.896579
45.8223,0.89648
46.4023,0.896041
46.9823,0.895915
47.5624,0.895836
48.1424,0.895756
48.7224,0.895764
49.3024,0.895568
49.8825,0.895237
50.4625,0.894509
51.0425,0.89351
51.6226,0.892277
52.2026,0.890724
52.7826,0.889095
53.3626,0.887627
53.9427,0.886387
54.5227,0.885659
55.1027,0.885647
55.6828,0.886125
56.2628,0.887243
56.8428,0.88865
57.4228,0.8902
58.0029,0.891749
58.5829,0.89309
59.1629,0.893947
59.743,0.89457
60.323,0.894863
60.903,0.894795
61.483,0.894429
62.0631,0.893812
62.6431,0.893223
63.2231,0.892686
63.8032,0.89219
64.3832,0.892124
64.9632,0.891539
65.5432,0.89033
66.1233,0.888509
66.7033,0.887023
67.2833,0.886123
67.8634,0.885351
68.4434,0.884954
69.0234,0.884997
69.6034,0.885508
70.1835,0.885451
70.7635,0.884891
71.3435,0.884092
71.9236,0.883817
72.5036,0.883777
73.0836,0.883379
73.6636,0.883004
74.2437,0.88262
74.8237,0.882216
75.4037,0.881773
75.9838,0.88135
76.5638,0.881184
77.1438,0.880746
77.7238,0.880281
78.3039,0.879616
78.8839,0.879122
79.4639,0.878643
80.044,0.878031
80.624,0.876964
81.204,0.875875
81.784,0.874986
82.3641,0.873901
82.9441,0.873183
83.5241,0.872907
84.1042,0.872786
84.6842,0.873046
85.2642,0.873413
85.8442,0.873692
86.4243,0.874118
87.0043,0.874515
87.5843,0.874839
88.1644,0.875208
88.7444,0.875605
89.3244,0.875151
89.9044,0.874654
90.4845,0.874201
91.0645,0.873655
91.6445,0.872954
92.2246,0.872124
92.8046,0.871104
93.3846,0.869384
93.9646,0.867892
94.5447,0.8666
95.1247,0.865882
95.7047,0.865869
96.2848,0.86599
96.8648,0.866161
97.4448,0.866304
98.0248,0.865911
98.6049,0.864475
99.1849,0.863373
99.7649,0.862767
100.345,0.862119
100.925,0.861291
101.505,0.860428
102.085,0.859828
102.665,0.858952
103.245,0.858009
103.825,0.857212
104.405,0.856826
104.985,0.856672
105.565,0.856046
106.145,0.855404
106.725,0.855213
107.305,0.855375
107.885,0.855644
108.465,0.856126
109.045,0.85671
109.625,0.857171
110.205,0.857133
110.785,0.856712
111.366,0.856221
111.946,0.855484
112.526,0.854506
113.106,0.85333
113.686,0.85209
114.266,0.850659
114.846,0.849511
115.426,0.84872
116.006,0.848266
116.586,0.848122
117.166,0.848059
117.746,0.848047
118.326,0.847947
118.906,0.847402
119.486,0.846276
120.066,0.845359
120.646,0.844754
121.226,0.844264
121.806,0.843972
122.386,0.843954
122.966,0.844221
123.546,0.844538
124.126,0.844497
124.706,0.843857
125.286,0.84333
125.866,0.842887
126.446,0.842321
127.026,0.841699
127.606,0.841066
128.186,0.840363
128.766,0.839583
129.346,0.83868
129.926,0.837675
130.506,0.836738
131.086,0.835822
131.667,0.834919
132.247,0.834001
132.827,0.833109
133.407,0.832235
133.987,0.831375
134.567,0.830491
135.147,0.82962
135.727,0.828749
136.307,0.827874
136.887,0.827002
137.467,0.826097
138.047,0.825177
138.627,0.824242
139.207,0.823283
139.787,0.822279
140.367,0.821255
140.947,0.820177
141.527,0.819083
142.107,0.817994
142.687,0.816931
143.267,0.815868
143.847,0.814782
144.427,0.813649
145.007,0.812451
145.587,0.811179
146.167,0.809829
146.747,0.808443
147.327,0.807026
147.907,0.805616
148.487,0.804186
149.067,0.802738
149.647,0.801282
150.227,0.799769
150.807,0.798206
151.387,0.796637
151.968,0.795094
152.548,0.793566
153.128,0.792051
153.708,0.790581
154.288,0.789096
154.868,0.787611
155.448,0.786036
156.028,0.784406
156.608,0.782756
157.188,0.781095
157.768,0.779425
158.348,0.777723
158.928,0.776036
159.508,0.774307
160.088,0.772566
160.668,0.770814
161.248,0.769056
161.828,0.76725
162.408,0.765409
162.988,0.763485
163.568,0.761445
164.148,0.759374
164.728,0.757235
165.308,0.755132
165.888,0.753099
166.468,0.751116
167.048,0.749147
167.628,0.747153
168.208,0.74507
168.788,0.742895
169.368,0.740673
169.948,0.738384
170.528,0.736053
171.108,0.73364
171.688,0.731157
172.269,0.728614
172.849,0.726007
173.429,0.723269
173.621,0.722331