File: smoothed_normalized_data/30.0mA1msec-0.2mA29msec.csv
Capacity_mAh,Voltage_V
0.0,1.0
0.286732,0.9689
0.573464,0.947076
0.860196,0.932747
1.14693,0.924131
1.43366,0.91972
1.72039,0.915859
2.00712,0.912703
2.29386,0.910254
2.58059,0.908407
2.86732,0.907069
3.15405,0.906096
3.44078,0.905501
3.72751,0.905144
4.01425,0.904913
4.30098,0.904691
4.58771,0.904461
4.87444,0.904241
5.16117,0.904043
5.44791,0.903851
5.73464,0.903647
6.02137,0.903491
6.3081,0.903389
6.59483,0.903278
6.88157,0.903196
7.1683,0.90314
7.45503,0.903098
7.74176,0.903065
8.02849,0.903025
8.31523,0.903005
8.60196,0.903005
8.88869,0.902982
9.17542,0.90302
9.46215,0.903049
9.74889,0.903042
10.0356,0.903013
10.3223,0.902953
10.6091,0.902881
10.8958,0.902791
11.1825,0.902697
11.4693,0.902662
11.756,0.9026
12.0427,0.902551
12.3295,0.902523
12.6162,0.90246
12.9029,0.902363
13.1897,0.902244
13.4764,0.90214
13.7631,0.902099
14.0499,0.902093
14.3366,0.90213
14.6233,0.902215
14.9101,0.902296
15.1968,0.902315
15.4835,0.902262
15.7703,0.902215
16.057,0.902214
16.3437,0.902224
16.6305,0.902239
16.9172,0.902273
17.2039,0.902329
17.4906,0.902409
17.7774,0.902455
18.0641,0.902464
18.3508,0.902513
18.6376,0.902572
18.9243,0.902655
19.211,0.902752
19.4978,0.902838
19.7845,0.902858
20.0712,0.902833
20.358,0.902754
20.6447,0.902741
20.9314,0.902753
21.2182,0.902814
21.5049,0.902909
21.7916,0.902978
22.0784,0.902996
22.3651,0.902995
22.6518,0.902983
22.9386,0.902998
23.2253,0.903002
23.512,0.903026
23.7987,0.903076
24.0855,0.903089
24.3722,0.903087
24.6589,0.903034
24.9457,0.902968
25.2324,0.902906
25.5191,0.902794
25.8059,0.902729
26.0926,0.902741
26.3793,0.902779
26.6661,0.902842
26.9528,0.902898
27.2395,0.90298
27.5263,0.903076
27.813,0.903146
28.0997,0.903185
28.3865,0.903179
28.6732,0.903122
28.9599,0.903034
29.2467,0.902933
29.5334,0.90286
29.8201,0.902884
30.1069,0.902999
30.3936,0.903173
30.6803,0.903348
30.967,0.903505
31.2538,0.903578
31.5405,0.903533
31.8272,0.903403
32.114,0.903263
32.4007,0.903204
32.6874,0.903253
32.9742,0.903355
33.2609,0.903521
33.5476,0.903656
33.8344,0.903715
34.1211,0.903677
34.4078,0.903579
34.6946,0.903503
34.9813,0.90345
35.268,0.903382
35.5548,0.903325
35.8415,0.903249
36.1282,0.903154
36.415,0.903045
36.7017,0.90298
36.9884,0.902995
37.2751,0.90306
37.5619,0.903188
37.8486,0.903319
38.1353,0.903411
38.4221,0.903452
38.7088,0.903416
38.9955,0.903336
39.2823,0.903195
39.569,0.903045
39.8557,0.902935
40.1425,0.902822
40.4292,0.902716
40.7159,0.902632
41.0027,0.902521
41.2894,0.902398
41.5761,0.902267
41.8629,0.902137
42.1496,0.902069
42.4363,0.901958
42.7231,0.901863
43.0098,0.901858
43.2965,0.901903
43.5833,0.901968
43.87,0.902033
44.1567,0.90204
44.4434,0.901985
44.7302,0.901888
45.0169,0.901783
45.3036,0.901714
45.5904,0.901648
45.8771,0.901588
46.1638,0.901521
46.4506,0.901404
46.7373,0.901233
47.024,0.901047
47.3108,0.90087
47.5975,0.900727
47.8842,0.900643
48.171,0.90064
48.4577,0.900663
48.7444,0.900725
49.0312,0.900769
49.3179,0.900697
49.6046,0.900557
49.8914,0.900454
50.1781,0.900362
50.4648,0.900299
50.7515,0.900256
51.0383,0.900252
51.325,0.900237
51.6117,0.900171
51.8985,0.900089
52.1852,0.900038
52.4719,0.899957
52.7587,0.899869
53.0454,0.899764
53.3321,0.899638
53.6189,0.899487
53.9056,0.899358
54.1923,0.899199
54.4791,0.898995
54.7658,0.898796
55.0525,0.898694
55.3393,0.8987
55.626,0.898763
55.9127,0.89884
56.1995,0.898917
56.4862,0.898929
56.7729,0.898859
57.0597,0.89873
57.3464,0.898641
57.6331,0.898566
57.9198,0.898491
58.2066,0.898401
58.4933,0.898295
58.78,0.898171
59.0668,0.898052
59.3535,0.897928
59.6402,0.897875
59.927,0.897849
60.2137,0.89787
60.5004,0.897865
60.7872,0.897826
61.0739,0.897758
61.3606,0.897705
61.6474,0.89763
61.9341,0.897602
62.2208,0.897582
62.5076,0.897563
62.7943,0.897509
63.081,0.897433
63.3678,0.897349
63.6545,0.897285
63.9412,0.897179
64.2279,0.897075
64.5147,0.897032
64.8014,0.89697
65.0881,0.89691
65.3749,0.896831
65.6616,0.896758
65.9483,0.896664
66.2351,0.896521
66.5218,0.896371
66.8085,0.896264
67.0953,0.89616
67.382,0.896047
67.6687,0.89592
67.9555,0.895831
68.2422,0.895673
68.5289,0.895539
68.8157,0.895382
69.1024,0.895219
69.3891,0.895084
69.6759,0.894956
69.9626,0.89483
70.2493,0.894729
70.5361,0.894596
70.8228,0.894538
71.1095,0.894435
71.3962,0.894312
71.683,0.894225
71.9697,0.894163
72.2564,0.894108
72.5432,0.89403
72.8299,0.89395
73.1166,0.893863
73.4034,0.893703
73.6901,0.893528
73.9768,0.893364
74.2636,0.893232
74.5503,0.893079
74.837,0.892915
75.1238,0.892765
75.4105,0.892619
75.6972,0.892499
75.984,0.892392
76.2707,0.892256
76.5574,0.892104
76.8442,0.891943
77.1309,0.891778
77.4176,0.891632
77.7044,0.891513
77.9911,0.891433
78.2778,0.891391
78.5645,0.891369
78.8513,0.891351
79.138,0.891349
79.4247,0.891284
79.7115,0.89117
79.9982,0.891043
80.2849,0.8909
80.5717,0.890766
80.8584,0.890658
81.1451,0.890525
81.4319,0.890371
81.7186,0.890172
82.0053,0.889949
82.2921,0.889773
82.5788,0.889644
82.8655,0.889496
83.1523,0.889374
83.439,0.889254
83.7257,0.889157
84.0125,0.889022
84.2992,0.888904
84.5859,0.888844
84.8726,0.88881
85.1594,0.888799
85.4461,0.888823
85.7328,0.888888
85.9284,0.888959