File: smoothed_normalized_data/30.0mA3msec-0.2mA7msec.csv
Capacity_mAh,Voltage_V
0.0,1.0
0.161219,0.995758
0.322438,0.991639
0.483657,0.987641
0.644876,0.983764
0.806095,0.980005
0.967314,0.976362
1.12853,0.972835
1.28975,0.96942
1.45097,0.966117
1.61219,0.962924
1.77341,0.959839
1.93463,0.95686
2.09585,0.953986
2.25707,0.951215
2.41829,0.948545
2.5795,0.945975
2.74072,0.943503
2.90194,0.941127
3.06316,0.938845
3.22438,0.936657
3.3856,0.934559
3.54682,0.932551
3.70804,0.930631
3.86926,0.928796
4.03048,0.927046
4.19169,0.925379
4.35291,0.923793
4.51413,0.922285
4.67535,0.920856
4.83657,0.919502
4.99779,0.918223
5.15901,0.917015
5.32023,0.915879
5.48145,0.914812
5.64267,0.913812
5.80389,0.912878
5.9651,0.912008
6.12632,0.9112
6.28754,0.910452
6.44876,0.909764
6.60998,0.909133
6.7712,0.908557
6.93242,0.908035
7.09364,0.907565
7.25486,0.907146
7.41608,0.906775
7.57729,0.906452
7.73851,0.906174
7.89973,0.905939
8.06095,0.905746
8.22217,0.905594
8.38339,0.90548
8.54461,0.905403
8.70583,0.905361
8.86705,0.905352
9.02827,0.905376
9.18948,0.905429
9.3507,0.905511
9.51192,0.905619
9.67314,0.905752
9.83436,0.905909
9.99558,0.906575
10.1568,0.907009
10.318,0.907337
10.4792,0.907587
10.6405,0.907769
10.8017,0.907896
10.9629,0.907983
11.1241,0.908041
11.2853,0.908072
11.4466,0.908093
11.6078,0.908119
11.769,0.908137
11.9302,0.908162
12.0914,0.908182
12.2526,0.908207
12.4139,0.908237
12.5751,0.908271
12.7363,0.908306
12.8975,0.90834
13.0587,0.908373
13.22,0.908404
13.3812,0.908426
13.5424,0.908437
13.7036,0.908441
13.8648,0.908442
14.0261,0.908436
14.1873,0.908423
14.3485,0.908401
14.5097,0.908366
14.6709,0.908325
14.8322,0.908285
14.9934,0.908242
15.1546,0.908192
15.3158,0.908127
15.477,0.908051
15.6382,0.907959
15.7995,0.907847
15.9607,0.907692
16.1219,0.907516
16.2831,0.907347
16.4443,0.907151
16.6056,0.906952
16.7668,0.906731
16.928,0.906503
17.0892,0.906261
17.2504,0.906014
17.4117,0.90578
17.5729,0.905551
17.7341,0.905322
17.8953,0.905085
18.0565,0.90484
18.2178,0.904597
18.379,0.904357
18.5402,0.904113
18.7014,0.903864
18.8626,0.903604
19.0238,0.903347
19.1851,0.903091
19.3463,0.902838
19.5075,0.902591
19.6687,0.902345
19.8299,0.902099
19.9912,0.901849
20.1524,0.901598
20.3136,0.901344
20.4748,0.901088
20.636,0.900831
20.7973,0.90057
20.9585,0.900306
21.1197,0.900042
21.2809,0.899777
21.4421,0.899508
21.6034,0.899239
21.7646,0.898966
21.9258,0.898694
22.087,0.898424
22.2482,0.898151
22.4094,0.897874
22.5707,0.897594
22.7319,0.89731
22.8931,0.897026
23.0543,0.896737
23.2155,0.896447
23.3768,0.896154
23.538,0.895858
23.6992,0.895559
23.8604,0.895257
24.0216,0.894951
24.1829,0.894641
24.3441,0.894326
24.5053,0.894009
24.6665,0.893689
24.8277,0.893366
24.9889,0.893039
25.1502,0.89271
25.3114,0.892382
25.4726,0.892053
25.6338,0.891721
25.795,0.891381
25.9563,0.891037
26.1175,0.890686
26.2787,0.890331
26.4399,0.889971
26.6011,0.889606
26.7624,0.88924
26.9236,0.888868
27.0848,0.888493
27.246,0.888113
27.4072,0.887733
27.5685,0.887349
27.7297,0.88696
27.8909,0.886568
28.0521,0.886172
28.2133,0.885774
28.3745,0.885371
28.5358,0.884967
28.697,0.884561
28.8582,0.884148
29.0194,0.883731
29.1806,0.883309
29.3419,0.882883
29.5031,0.882452
29.6643,0.882021
29.8255,0.881585
29.9867,0.881144
30.148,0.880696
30.3092,0.880243
30.4704,0.879785
30.6316,0.879322
30.7928,0.878855
30.9541,0.878385
31.1153,0.87791
31.2765,0.87743
31.4377,0.876946
31.5989,0.876459
31.7601,0.875969
31.9214,0.875475
32.0826,0.874977
32.2438,0.874474
32.405,0.873967
32.5662,0.873456
32.7275,0.872942
32.8887,0.872421
33.0499,0.871895
33.2111,0.871363
33.3723,0.870826
33.5336,0.870283
33.6948,0.869734
33.856,0.869181
34.0172,0.868623
34.1784,0.868062
34.3397,0.867496
34.5009,0.866927
34.6621,0.866351
34.8233,0.86577
34.9845,0.86518
35.1457,0.864585
35.307,0.863986
35.4682,0.86338
35.6294,0.862772
35.7906,0.862159
35.9518,0.861537
36.1131,0.860909
36.2743,0.860273
36.4355,0.85963
36.5967,0.85898
36.7579,0.858323
36.9192,0.857658
37.0804,0.856985
37.2416,0.856307
37.4028,0.855621
37.564,0.854927
37.7253,0.854227
37.8865,0.853519
38.0477,0.852801
38.2089,0.852075
38.3701,0.851333
38.5313,0.850575
38.6926,0.849798
38.8538,0.849002
39.015,0.848183
39.1762,0.847343
39.3374,0.846479
39.4987,0.845591
39.6599,0.844682
39.8211,0.843754
39.9823,0.84281
40.1435,0.841851
40.3048,0.840889
40.466,0.840007
40.6272,0.839151
40.7884,0.838303
40.9496,0.837462
41.1109,0.836623
41.2721,0.835785
41.4333,0.834945
41.5945,0.8341
41.7557,0.833249
41.9169,0.832391
42.0782,0.831526
42.2394,0.830653
42.4006,0.829769
42.5618,0.828874
42.723,0.827968
42.8843,0.827051
43.0455,0.826122
43.2067,0.825179
43.3679,0.824223
43.5291,0.823254
43.6904,0.822272
43.8516,0.821279
44.0128,0.820276
44.174,0.819259
44.3352,0.81823
44.4965,0.817186
44.6577,0.816125
44.8189,0.815039
44.9801,0.813928
45.1413,0.81281
45.3025,0.811683
45.4638,0.810535
45.625,0.80936
45.7862,0.808161
45.9474,0.806934
46.1086,0.805674
46.2699,0.80438
46.4311,0.803048
46.5923,0.801677
46.7535,0.800265
46.9147,0.798808
47.076,0.797304
47.2372,0.795751
47.3984,0.794145
47.5596,0.792481
47.7208,0.790754
47.8821,0.788962
48.0052,0.787546