File: smoothed_normalized_data/30.0mA5msec-0.2mA5msec.csv
Capacity_mAh,Voltage_V
0.0,1.0
0.0734026,0.998453
0.146805,0.996923
0.220208,0.995408
0.29361,0.993909
0.367013,0.992425
0.440416,0.990957
0.513818,0.989505
0.587221,0.988068
0.660623,0.986646
0.734026,0.985239
0.807428,0.983848
0.880831,0.982471
0.954234,0.98111
1.02764,0.979763
1.10104,0.978431
1.17444,0.977113
1.24784,0.97581
1.32125,0.974522
1.39465,0.973247
1.46805,0.971987
1.54145,0.970742
1.61486,0.96951
1.68826,0.968292
1.76166,0.967088
1.83506,0.965897
1.90847,0.964721
1.98187,0.963558
2.05527,0.962408
2.12868,0.961272
2.20208,0.960149
2.27548,0.959039
2.34888,0.957942
2.42229,0.956859
2.49569,0.955788
2.56909,0.95473
2.64249,0.953684
2.7159,0.952652
2.7893,0.951632
2.8627,0.950624
2.9361,0.949628
3.00951,0.948645
3.08291,0.947674
3.15631,0.946715
3.22971,0.945768
3.30312,0.944832
3.37652,0.943909
3.44992,0.942997
3.52332,0.942096
3.59673,0.941207
3.67013,0.94033
3.74353,0.939464
3.81693,0.938609
3.89034,0.937764
3.96374,0.936931
4.03714,0.936109
4.11055,0.935298
4.18395,0.934497
4.25735,0.933707
4.33075,0.932928
4.40416,0.932158
4.47756,0.9314
4.55096,0.930651
4.62436,0.929912
4.69777,0.929184
4.77117,0.928465
4.84457,0.927757
4.91797,0.927058
4.99138,0.926368
5.06478,0.925689
5.13818,0.925018
5.21158,0.924357
5.28499,0.923706
5.35839,0.923063
5.43179,0.92243
5.50519,0.921805
5.5786,0.92119
5.652,0.920583
5.7254,0.919985
5.7988,0.919395
5.87221,0.918814
5.94561,0.918241
6.01901,0.917677
6.09241,0.917121
6.16582,0.916573
6.23922,0.916033
6.31262,0.915501
6.38603,0.914977
6.45943,0.91446
6.53283,0.913951
6.60623,0.91345
6.67964,0.912956
6.75304,0.91247
6.82644,0.911991
6.89984,0.911518
6.97325,0.911053
7.04665,0.910595
7.12005,0.910144
7.19345,0.9097
7.26686,0.909262
7.34026,0.908831
7.41366,0.908406
7.48706,0.907988
7.56047,0.907576
7.63387,0.907171
7.70727,0.906771
7.78067,0.906377
7.85408,0.90599
7.92748,0.905608
8.00088,0.905232
8.07428,0.904861
8.14769,0.904496
8.22109,0.904137
8.29449,0.903783
8.3679,0.903434
8.4413,0.90309
8.5147,0.902751
8.5881,0.902418
8.66151,0.902089
8.73491,0.901765
8.80831,0.901445
8.88171,0.901131
8.95512,0.90082
9.02852,0.900514
9.10192,0.900213
9.17532,0.899915
9.24873,0.899622
9.32213,0.899333
9.39553,0.899047
9.46893,0.898766
9.54234,0.898488
9.61574,0.898214
9.68914,0.897943
9.76254,0.897676
9.83595,0.897412
9.90935,0.897151
9.98275,0.896894
10.0562,0.896639
10.1296,0.896388
10.203,0.896139
10.2764,0.895893
10.3498,0.89565
10.4232,0.895409
10.4966,0.895171
10.57,0.894935
10.6434,0.894702
10.7168,0.894471
10.7902,0.894242
10.8636,0.894014
10.937,0.893789
11.0104,0.893566
11.0838,0.893344
11.1572,0.893124
11.2306,0.892905
11.304,0.892688
11.3774,0.892472
11.4508,0.892258
11.5242,0.892044
11.5976,0.891832
11.671,0.891621
11.7444,0.89141
11.8178,0.8912
11.8912,0.890991
11.9646,0.890783
12.038,0.890575
12.1114,0.890367
12.1848,0.89016
12.2582,0.889952
12.3316,0.889745
12.405,0.889538
12.4784,0.889331
12.5518,0.889124
12.6252,0.888916
12.6986,0.888708
12.7721,0.888499
12.8455,0.88829
12.9189,0.88808
12.9923,0.88787
13.0657,0.887658
13.1391,0.887446
13.2125,0.887233
13.2859,0.887018
13.3593,0.886802
13.4327,0.886585
13.5061,0.886366
13.5795,0.886146
13.6529,0.885925
13.7263,0.885701
13.7997,0.885476
13.8731,0.885249
13.9465,0.885019
14.0199,0.884788
14.0933,0.884555
14.1667,0.884319
14.2401,0.884081
14.3135,0.88384
14.3869,0.883597
14.4603,0.883351
14.5337,0.883102
14.6071,0.882851
14.6805,0.882596
14.7539,0.882339
14.8273,0.882078
14.9007,0.881814
14.9741,0.881547
15.0475,0.881276
15.1209,0.881002
15.1943,0.880724
15.2677,0.880442
15.3411,0.880157
15.4145,0.879867
15.4879,0.879574
15.5613,0.879276
15.6348,0.878975
15.7082,0.878669
15.7816,0.878358
15.855,0.878044
15.9284,0.877724
16.0018,0.8774
16.0752,0.877071
16.1486,0.876737
16.222,0.876398
16.2954,0.876169
16.3688,0.875989
16.4422,0.875785
16.5156,0.87555
16.589,0.875295
16.6624,0.875019
16.7358,0.87472
16.8092,0.874404
16.8826,0.874072
16.956,0.873725
17.0294,0.873362
17.1028,0.872985
17.1762,0.872594
17.2496,0.87219
17.323,0.871774
17.3964,0.871345
17.4698,0.870903
17.5432,0.870452
17.6166,0.86999
17.69,0.869519
17.7634,0.869038
17.8368,0.868548
17.9102,0.86805
17.9836,0.867544
18.057,0.86703
18.1304,0.866506
18.2038,0.865972
18.2772,0.865429
18.3506,0.864877
18.4241,0.864315
18.4975,0.863744
18.5709,0.863162
18.6443,0.862569
18.7177,0.861967
18.7911,0.861355
18.8645,0.860734
18.9379,0.860102
19.0113,0.859456
19.0847,0.858798
19.1581,0.858125
19.2315,0.857437
19.3049,0.856734
19.3783,0.856015
19.4517,0.855279
19.5251,0.854526
19.5985,0.853756
19.6719,0.852969
19.7453,0.852167
19.8187,0.851348
19.8921,0.850513
19.9655,0.84966
20.0389,0.848793
20.1123,0.847908
20.1857,0.847007
20.2591,0.84609
20.3325,0.845157
20.4059,0.844208
20.4793,0.843242
20.5527,0.842261
20.6261,0.841265
20.6995,0.840256
20.7729,0.839232
20.8463,0.838194
20.9197,0.837142
20.9931,0.836074
21.0665,0.834991
21.1399,0.833894
21.2133,0.832781
21.2868,0.831653
21.3602,0.830513
21.4336,0.829356
21.507,0.828187
21.5762,0.827072