File: smoothed_normalized_data/30.0mA2msec-0.2mA8msec.csv
Capacity_mAh,Voltage_V
0.0,1.0
0.259233,0.991896
0.518465,0.984299
0.777698,0.977194
1.03693,0.970565
1.29616,0.964395
1.5554,0.958671
1.81463,0.953374
2.07386,0.94849
2.33309,0.944003
2.59233,0.939897
2.85156,0.936155
3.11079,0.932763
3.37002,0.929704
3.62926,0.926963
3.88849,0.924523
4.14772,0.922369
4.40696,0.920485
4.66619,0.918855
4.92542,0.917464
5.18465,0.916294
5.44389,0.915332
5.70312,0.91456
5.96235,0.913963
6.22158,0.913525
6.48082,0.91323
6.74005,0.913538
6.99928,0.913868
7.25851,0.913914
7.51775,0.913811
7.77698,0.913602
8.03621,0.913333
8.29545,0.913041
8.55468,0.912757
8.81391,0.912494
9.07314,0.912258
9.33238,0.912049
9.59161,0.911873
9.85084,0.911726
10.1101,0.911603
10.3693,0.911502
10.6285,0.911416
10.8878,0.911334
11.147,0.911253
11.4062,0.911176
11.6655,0.911106
11.9247,0.911033
12.1839,0.910959
12.4432,0.910899
12.7024,0.910852
12.9616,0.91081
13.2209,0.910774
13.4801,0.91074
13.7393,0.910713
13.9986,0.910683
14.2578,0.910645
14.517,0.910611
14.7763,0.910567
15.0355,0.910514
15.2947,0.910468
15.554,0.910404
15.8132,0.910343
16.0724,0.910265
16.3317,0.910191
16.5909,0.910095
16.8501,0.909986
17.1094,0.909882
17.3686,0.909756
17.6278,0.909628
17.8871,0.909493
18.1463,0.909347
18.4055,0.909182
18.6648,0.909017
18.924,0.908838
19.1832,0.908643
19.4425,0.908437
19.7017,0.908232
19.9609,0.908017
20.2201,0.90778
20.4794,0.907539
20.7386,0.907305
20.9978,0.907067
21.2571,0.906817
21.5163,0.906565
21.7755,0.90631
22.0348,0.906062
22.294,0.90582
22.5532,0.905588
22.8125,0.905361
23.0717,0.905132
23.3309,0.904903
23.5902,0.904674
23.8494,0.90444
24.1086,0.904211
24.3679,0.903986
24.6271,0.903765
24.8863,0.903544
25.1456,0.903333
25.4048,0.903137
25.664,0.90294
25.9233,0.902734
26.1825,0.902524
26.4417,0.902312
26.701,0.902092
26.9602,0.901877
27.2194,0.901657
27.4787,0.901445
27.7379,0.901234
27.9971,0.901013
28.2564,0.90078
28.5156,0.900536
28.7748,0.900289
29.0341,0.900038
29.2933,0.899783
29.5525,0.899526
29.8118,0.899271
30.071,0.899021
30.3302,0.89877
30.5895,0.898514
30.8487,0.898258
31.1079,0.897988
31.3672,0.897709
31.6264,0.897422
31.8856,0.897131
32.1449,0.896836
32.4041,0.896537
32.6633,0.896232
32.9225,0.895927
33.1818,0.895626
33.441,0.895328
33.7002,0.89503
33.9595,0.894728
34.2187,0.894421
34.4779,0.894116
34.7372,0.893804
34.9964,0.89349
35.2556,0.893173
35.5149,0.892859
35.7741,0.892547
36.0333,0.892237
36.2926,0.891927
36.5518,0.891626
36.811,0.891324
37.0703,0.891017
37.3295,0.890701
37.5887,0.890376
37.848,0.890044
38.1072,0.889704
38.3664,0.889358
38.6257,0.889008
38.8849,0.888648
39.1441,0.888289
39.4034,0.887925
39.6626,0.887556
39.9218,0.887181
40.1811,0.886798
40.4403,0.886411
40.6995,0.886017
40.9588,0.88562
41.218,0.885216
41.4772,0.884806
41.7365,0.884389
41.9957,0.883965
42.2549,0.883541
42.5142,0.883119
42.7734,0.882692
43.0326,0.882263
43.2919,0.881833
43.5511,0.881404
43.8103,0.88098
44.0696,0.880556
44.3288,0.880133
44.588,0.879707
44.8473,0.879274
45.1065,0.878836
45.3657,0.878394
45.6249,0.877949
45.8842,0.877505
46.1434,0.877064
46.4026,0.876623
46.6619,0.876185
46.9211,0.875753
47.1803,0.875319
47.4396,0.874878
47.6988,0.874432
47.958,0.87398
48.2173,0.873525
48.4765,0.873067
48.7357,0.872607
48.995,0.872141
49.2542,0.871666
49.5134,0.871192
49.7727,0.870721
50.0319,0.870244
50.2911,0.869754
50.5504,0.869252
50.8096,0.868738
51.0688,0.868215
51.3281,0.867677
51.5873,0.867128
51.8465,0.866565
52.1058,0.865998
52.365,0.865427
52.6242,0.864852
52.8835,0.864275
53.1427,0.863695
53.4019,0.863105
53.6612,0.862506
53.9204,0.861896
54.1796,0.861272
54.4389,0.860638
54.6981,0.860002
54.9573,0.859362
55.2166,0.858724
55.4758,0.858086
55.735,0.857447
55.9943,0.856809
56.2535,0.856173
56.5127,0.855538
56.772,0.854897
57.0312,0.854251
57.2904,0.853593
57.5497,0.852924
57.8089,0.852242
58.0681,0.851557
58.3274,0.850869
58.5866,0.850175
58.8458,0.849477
59.105,0.848775
59.3643,0.848074
59.6235,0.847375
59.8827,0.846673
60.142,0.845956
60.4012,0.845223
60.6604,0.844481
60.9197,0.843732
61.1789,0.842979
61.4381,0.842219
61.6974,0.841456
61.9566,0.840689
62.2158,0.839917
62.4751,0.839138
62.7343,0.838343
62.9935,0.837521
63.2528,0.836671
63.512,0.835806
63.7712,0.83493
64.0305,0.834052
64.2897,0.833165
64.5489,0.83227
64.8082,0.831365
65.0674,0.83045
65.3266,0.829519
65.5859,0.828574
65.8451,0.827611
66.1043,0.826627
66.3636,0.825624
66.6228,0.82461
66.882,0.823588
67.1413,0.822558
67.4005,0.821512
67.6597,0.820449
67.919,0.819368
68.1782,0.818267
68.4374,0.817142
68.6967,0.815988
68.9559,0.814811
69.2151,0.813607
69.4744,0.812382
69.7336,0.811129
69.9928,0.809845
70.2521,0.80852
70.5113,0.807142
70.7705,0.805695
71.0298,0.804172
71.289,0.802574
71.5482,0.800911
71.8074,0.799191
72.0667,0.797422
72.3259,0.795611
72.5851,0.793765
72.8444,0.791887
73.1036,0.789987
73.3628,0.788074
73.6221,0.786162
73.8813,0.784263
74.1405,0.782547
74.3998,0.781164
74.659,0.779873
74.9182,0.77863
75.1775,0.777406
75.4367,0.776188
75.6959,0.77496
75.9552,0.773723
76.2144,0.772464
76.4736,0.771152
76.7329,0.769772
76.9921,0.768316
77.2513,0.766773
77.5106,0.765121
77.5414,0.764917