File: smoothed_normalized_data/35.0mA1msec-0.2mA14msec.csv
Capacity_mAh,Voltage_V
0.0,1.0
0.595001,0.962919
1.19,0.938017
1.785,0.922921
2.38,0.91526
2.975,0.913082
3.57001,0.911481
4.16501,0.910477
4.76001,0.909853
5.35501,0.909349
5.95001,0.908888
6.54501,0.908452
7.14001,0.908
7.73501,0.90765
8.33001,0.907221
8.92501,0.906821
9.52001,0.906511
10.115,0.90629
10.71,0.906064
11.305,0.90595
11.9,0.905798
12.495,0.905569
13.09,0.905244
13.685,0.904891
14.28,0.904671
14.875,0.904565
15.47,0.904634
16.065,0.904713
16.66,0.904839
17.255,0.904915
17.85,0.904945
18.445,0.904874
19.04,0.904855
19.635,0.904918
20.23,0.905005
20.825,0.904984
21.42,0.904817
22.015,0.904656
22.61,0.904484
23.205,0.904309
23.8,0.904153
24.395,0.904122
24.99,0.904161
25.585,0.904101
26.18,0.903967
26.775,0.903692
27.37,0.903477
27.965,0.903301
28.56,0.903103
29.155,0.902782
29.75,0.902579
30.345,0.902457
30.94,0.902284
31.535,0.901989
32.13,0.901711
32.725,0.901486
33.3201,0.901303
33.9151,0.901083
34.5101,0.900907
35.1051,0.900581
35.7001,0.900265
36.2951,0.899796
36.8901,0.899302
37.4851,0.898923
38.0801,0.898479
38.6751,0.898185
39.2701,0.897882
39.8651,0.897629
40.4601,0.897473
41.0551,0.897288
41.6501,0.8972
42.2451,0.897203
42.8401,0.896963
43.4351,0.896808
44.0301,0.896728
44.6251,0.896659
45.2201,0.896474
45.8151,0.89627
46.4101,0.896073
47.0051,0.895763
47.6001,0.895521
48.1951,0.895277
48.7901,0.895221
49.3851,0.895124
49.9801,0.895048
50.5751,0.894903
51.1701,0.894733
51.7651,0.894513
52.3601,0.894309
52.9551,0.894126
53.5501,0.893925
54.1451,0.89372
54.7401,0.893521
55.3351,0.893312
55.9301,0.893092
56.5251,0.892898
57.1201,0.892704
57.7151,0.892529
58.3101,0.892344
58.9051,0.892103
59.5001,0.891852
60.0951,0.891682
60.6901,0.8916
61.2851,0.89157
61.8801,0.891626
62.4751,0.891577
63.0701,0.891511
63.6651,0.89134
64.2601,0.891096
64.8551,0.890801
65.4501,0.890413
66.0451,0.890014
66.6401,0.889787
67.2351,0.889535
67.8301,0.889405
68.4251,0.889489
69.0201,0.889635
69.6151,0.889686
70.2101,0.889497
70.8051,0.889279
71.4001,0.888988
71.9951,0.888537
72.5901,0.888039
73.1851,0.887677
73.7801,0.887326
74.3751,0.886993
74.9701,0.886417
75.5651,0.886036
76.1601,0.8856
76.7551,0.885043
77.3501,0.884581
77.9451,0.884045
78.5401,0.883571
79.1351,0.883001
79.7301,0.882486
80.3251,0.882025
80.9201,0.881524
81.5151,0.881144
82.1101,0.880929
82.7051,0.880533
83.3001,0.880218
83.8951,0.879804
84.4901,0.879375
85.0851,0.87894
85.6801,0.878396
86.2751,0.877889
86.8701,0.877287
87.4651,0.87659
88.0601,0.87591
88.6551,0.875439
89.2501,0.874988
89.8451,0.874744
90.4401,0.874338
91.0351,0.873728
91.6301,0.873101
92.2251,0.872414
92.8201,0.871727
93.4151,0.871127
94.0101,0.870755
94.6051,0.870305
95.2001,0.869854
95.7951,0.869412
96.3901,0.868984
96.9851,0.868491
97.5801,0.86793
98.1751,0.867357
98.7702,0.866984
99.3652,0.866548
99.9602,0.866137
100.555,0.865628
101.15,0.865091
101.745,0.864488
102.34,0.863846
102.935,0.863268
103.53,0.862822
104.125,0.862544
104.72,0.862152
105.315,0.861909
105.91,0.861551
106.505,0.861177
107.1,0.860828
107.695,0.860498
108.29,0.860143
108.885,0.859807
109.48,0.859437
110.075,0.859065
110.67,0.858589
111.265,0.858017
111.86,0.857368
112.455,0.856776
113.05,0.856146
113.645,0.855446
114.24,0.85485
114.835,0.854353
115.43,0.853912
116.025,0.85342
116.62,0.852879
117.215,0.852274
117.81,0.851705
118.405,0.851119
119,0.850566
119.595,0.850014
120.19,0.849413
120.785,0.848874
121.38,0.848239
121.975,0.847586
122.57,0.846831
123.165,0.846182
123.76,0.845606
124.355,0.84519
124.95,0.844879
125.545,0.844632
126.14,0.8443
126.735,0.844042
127.33,0.843558
127.925,0.843005
128.52,0.842287
129.115,0.841574
129.71,0.840908
130.305,0.840101
130.9,0.839209
131.495,0.838417
132.09,0.837598
132.685,0.836675
133.28,0.835759
133.875,0.834887
134.47,0.834015
135.065,0.833047
135.66,0.832065
136.255,0.831086
136.85,0.83021
137.445,0.829317
138.04,0.828376
138.635,0.827366
139.23,0.826267
139.825,0.825112
140.42,0.824099
141.015,0.823012
141.61,0.822233
142.205,0.821482
142.8,0.820722
143.395,0.819839
143.99,0.818781
144.585,0.817584
145.18,0.816294
145.775,0.815174
146.37,0.814301
146.965,0.813432
147.56,0.81262
148.155,0.81187
148.75,0.8111
149.345,0.810054
149.94,0.808849
150.535,0.807759
151.13,0.806661
151.725,0.805481
152.32,0.804274
152.915,0.803114
153.51,0.80202
154.105,0.800801
154.7,0.799526
155.295,0.798209
155.89,0.796924
156.485,0.795578
157.08,0.794109
157.675,0.792552
158.27,0.790978
158.865,0.789343
159.46,0.787722
160.055,0.786145
160.65,0.784622
161.245,0.783361
161.84,0.78211
162.435,0.78035
163.03,0.777367
163.625,0.773754
164.22,0.76966
164.815,0.765596
165.41,0.761784
166.005,0.758209
166.6,0.755577
167.195,0.753394
167.79,0.751178
168.385,0.748869
168.98,0.746741
169.575,0.744925
170.17,0.743164
170.765,0.741394
171.36,0.73969
171.955,0.738028
172.55,0.736491
173.145,0.73459
173.74,0.732499
174.335,0.730313
174.93,0.72827
175.525,0.726387
176.12,0.72469
176.715,0.723115
177.31,0.721786
177.905,0.7205
177.979,0.720348