File: smoothed_normalized_data/40.0mA3msec-0.2mA27msec.csv
Capacity_mAh,Voltage_V
0.0,1.0
0.371556,0.984018
0.743112,0.97014
1.11467,0.958219
1.48622,0.948113
1.85778,0.939675
2.22934,0.932763
2.60089,0.927232
2.97245,0.922936
3.34401,0.919732
3.71556,0.917475
4.08712,0.91602
4.45867,0.915224
4.83023,0.915833
5.20179,0.915502
5.57334,0.914914
5.9449,0.914258
6.31645,0.913552
6.68801,0.912824
7.05957,0.912191
7.43112,0.911652
7.80268,0.911292
8.17423,0.911085
8.54579,0.911026
8.91735,0.911044
9.2889,0.911121
9.66046,0.911204
10.032,0.911216
10.4036,0.911135
10.7751,0.91104
11.1467,0.910998
11.5182,0.911
11.8898,0.911022
12.2614,0.911063
12.6329,0.911129
13.0045,0.91122
13.376,0.911352
13.7476,0.911585
14.1191,0.911873
14.4907,0.912232
14.8622,0.912625
15.2338,0.913002
15.6054,0.913401
15.9769,0.913812
16.3485,0.914277
16.72,0.914758
17.0916,0.915203
17.4631,0.915608
17.8347,0.915975
18.2063,0.916296
18.5778,0.916562
18.9494,0.916761
19.3209,0.916955
19.6925,0.917142
20.064,0.917296
20.4356,0.917402
20.8071,0.917443
21.1787,0.917428
21.5503,0.917382
21.9218,0.917292
22.2934,0.917192
22.6649,0.917044
23.0365,0.916849
23.408,0.916673
23.7796,0.916482
24.1511,0.916291
24.5227,0.916102
24.8943,0.915894
25.2658,0.915674
25.6374,0.915424
26.0089,0.915186
26.3805,0.91494
26.752,0.914708
27.1236,0.914475
27.4952,0.914212
27.8667,0.913979
28.2383,0.91379
28.6098,0.913551
28.9814,0.913344
29.3529,0.913123
29.7245,0.91291
30.096,0.912679
30.4676,0.91246
30.8392,0.912278
31.2107,0.912106
31.5823,0.911964
31.9538,0.911872
32.3254,0.911779
32.6969,0.911706
33.0685,0.911615
33.4401,0.911499
33.8116,0.911386
34.1832,0.911209
34.5547,0.911037
34.9263,0.910828
35.2978,0.910622
35.6694,0.910432
36.0409,0.910199
36.4125,0.909943
36.7841,0.909672
37.1556,0.909358
37.5272,0.909045
37.8987,0.908725
38.2703,0.908392
38.6418,0.908082
39.0134,0.907778
39.3849,0.907481
39.7565,0.907211
40.1281,0.906916
40.4996,0.906621
40.8712,0.906326
41.2427,0.906069
41.6143,0.905844
41.9858,0.905641
42.3574,0.905431
42.729,0.905205
43.1005,0.904993
43.4721,0.904781
43.8436,0.904585
44.2152,0.904383
44.5867,0.904161
44.9583,0.90393
45.3298,0.903721
45.7014,0.903538
46.073,0.903327
46.4445,0.903095
46.8161,0.902847
47.1876,0.902579
47.5592,0.90226
47.9307,0.901941
48.3023,0.901593
48.6739,0.901224
49.0454,0.90087
49.417,0.900537
49.7885,0.900224
50.1601,0.899934
50.5316,0.899629
50.9032,0.899302
51.2747,0.898975
51.6463,0.898654
52.0179,0.898325
52.3894,0.898001
52.761,0.897671
53.1325,0.897337
53.5041,0.897023
53.8756,0.896719
54.2472,0.896399
54.6188,0.896053
54.9903,0.895678
55.3619,0.895289
55.7334,0.894901
56.105,0.89452
56.4765,0.894118
56.8481,0.893694
57.2196,0.893268
57.5912,0.892849
57.9628,0.892433
58.3343,0.892031
58.7059,0.891642
59.0774,0.891256
59.449,0.890876
59.8205,0.890496
60.1921,0.890116
60.5636,0.889733
60.9352,0.889351
61.3068,0.888966
61.6783,0.888598
62.0499,0.888217
62.4214,0.887828
62.793,0.887406
63.1645,0.88697
63.5361,0.886525
63.9077,0.886081
64.2792,0.885631
64.6508,0.885174
65.0223,0.884685
65.3939,0.884178
65.7654,0.883674
66.137,0.883171
66.5085,0.882675
66.8801,0.882188
67.2517,0.88169
67.6232,0.881198
67.9948,0.880705
68.3663,0.880212
68.7379,0.879733
69.1094,0.879265
69.481,0.878802
69.8526,0.878333
70.2241,0.877863
70.5957,0.877376
70.9672,0.876889
71.3388,0.876391
71.7103,0.875888
72.0819,0.87539
72.4534,0.874875
72.825,0.87434
73.1966,0.873811
73.5681,0.873262
73.9397,0.872707
74.3112,0.872131
74.6828,0.871546
75.0543,0.870961
75.4259,0.870369
75.7974,0.869768
76.169,0.869169
76.5406,0.868575
76.9121,0.867978
77.2837,0.867389
77.6552,0.866791
78.0268,0.866174
78.3983,0.865548
78.7699,0.864921
79.1415,0.864293
79.513,0.863678
79.8846,0.863049
80.2561,0.862405
80.6277,0.861755
80.9992,0.861092
81.3708,0.860434
81.7423,0.859788
82.1139,0.859123
82.4855,0.858455
82.857,0.857778
83.2286,0.857101
83.6001,0.856423
83.9717,0.85574
84.3432,0.855055
84.7148,0.85437
85.0864,0.853674
85.4579,0.852964
85.8295,0.85226
86.201,0.851535
86.5726,0.850777
86.9441,0.850006
87.3157,0.849214
87.6872,0.848393
88.0588,0.847543
88.4304,0.846646
88.8019,0.845724
89.1735,0.84479
89.545,0.843871
89.9166,0.84295
90.2881,0.842033
90.6597,0.841105
91.0313,0.840198
91.4028,0.839284
91.7744,0.838349
92.1459,0.837408
92.5175,0.836454
92.889,0.835494
93.2606,0.834514
93.6321,0.833527
94.0037,0.83252
94.3753,0.831502
94.7468,0.830465
95.1184,0.829398
95.4899,0.828291
95.8615,0.82715
96.233,0.825956
96.6046,0.824726
96.9761,0.823463
97.3477,0.822182
97.7193,0.820898
98.0908,0.819607
98.4624,0.818297
98.8339,0.816965
99.2055,0.815614
99.577,0.814245
99.9486,0.812826
100.32,0.811364
100.692,0.809863
101.063,0.808312
101.435,0.806717
101.806,0.805074
102.178,0.80339
102.549,0.801645
102.921,0.799852
103.293,0.798005
103.664,0.796088
104.036,0.79408
104.407,0.792004
104.779,0.789861
105.15,0.787635
105.522,0.785331
105.893,0.782959
106.265,0.780519
106.637,0.778014
107.008,0.775618
107.38,0.773119
107.751,0.770403
108.123,0.767658
108.494,0.764864
108.866,0.761989
109.238,0.759014
109.609,0.755951
109.981,0.752762
110.352,0.749454
110.648,0.746716