File: smoothed_normalized_data/40.0mA1msec-0.2mA9msec.csv
Capacity_mAh,Voltage_V
0.0,1.0
0.429612,0.982632
0.859224,0.968069
1.28884,0.956077
1.71845,0.946425
2.14806,0.938881
2.57767,0.933213
3.00728,0.929188
3.43689,0.926574
3.86651,0.925139
4.29612,0.924651
4.72573,0.925347
5.15534,0.925787
5.58495,0.925817
6.01456,0.925664
6.44418,0.925361
6.87379,0.924972
7.3034,0.924578
7.73301,0.924191
8.16262,0.923819
8.59224,0.923471
9.02185,0.923138
9.45146,0.922839
9.88107,0.922566
10.3107,0.922323
10.7403,0.922123
11.1699,0.921951
11.5995,0.9218
12.0291,0.921681
12.4587,0.921582
12.8884,0.921479
13.318,0.921363
13.7476,0.921231
14.1772,0.921091
14.6068,0.920938
15.0364,0.920779
15.466,0.92061
15.8956,0.920421
16.3252,0.920196
16.7549,0.919959
17.1845,0.919728
17.6141,0.919493
18.0437,0.919287
18.4733,0.919097
18.9029,0.918935
19.3325,0.918803
19.7621,0.918674
20.1918,0.91855
20.6214,0.918438
21.051,0.918318
21.4806,0.91818
21.9102,0.918025
22.3398,0.91786
22.7694,0.917677
23.199,0.917477
23.6286,0.917264
24.0583,0.917027
24.4879,0.916771
24.9175,0.916504
25.3471,0.916231
25.7767,0.915972
26.2063,0.915705
26.6359,0.915461
27.0655,0.915236
27.4952,0.915033
27.9248,0.91484
28.3544,0.914642
28.784,0.914449
29.2136,0.914251
29.6432,0.914042
30.0728,0.913822
30.5024,0.913592
30.932,0.913361
31.3617,0.913118
31.7913,0.912889
32.2209,0.912654
32.6505,0.912415
33.0801,0.912178
33.5097,0.911917
33.9393,0.911654
34.3689,0.911403
34.7986,0.911158
35.2282,0.910925
35.6578,0.910698
36.0874,0.910482
36.517,0.910268
36.9466,0.91005
37.3762,0.909831
37.8058,0.909599
38.2354,0.909365
38.6651,0.909128
39.0947,0.908905
39.5243,0.908686
39.9539,0.908455
40.3835,0.908226
40.8131,0.90799
41.2427,0.907749
41.6723,0.907506
42.102,0.907237
42.5316,0.906977
42.9612,0.906718
43.3908,0.906463
43.8204,0.906205
44.25,0.905957
44.6796,0.90572
45.1092,0.905489
45.5388,0.905263
45.9685,0.905032
46.3981,0.904787
46.8277,0.904534
47.2573,0.904281
47.6869,0.904035
48.1165,0.903773
48.5461,0.903496
48.9757,0.903215
49.4054,0.902941
49.835,0.90267
50.2646,0.902386
50.6942,0.902083
51.1238,0.901785
51.5534,0.901497
51.983,0.901213
52.4126,0.900923
52.8422,0.900635
53.2719,0.90034
53.7015,0.900041
54.1311,0.899728
54.5607,0.899407
54.9903,0.899072
55.4199,0.898742
55.8495,0.898412
56.2791,0.898091
56.7088,0.897774
57.1384,0.897443
57.568,0.897098
57.9976,0.896748
58.4272,0.896396
58.8568,0.89604
59.2864,0.89568
59.716,0.89533
60.1456,0.894986
60.5753,0.894641
61.0049,0.894289
61.4345,0.893926
61.8641,0.89357
62.2937,0.893202
62.7233,0.892838
63.1529,0.892473
63.5825,0.892108
64.0122,0.891754
64.4418,0.891405
64.8714,0.891055
65.301,0.890711
65.7306,0.890344
66.1602,0.889969
66.5898,0.889596
67.0194,0.889224
67.449,0.888845
67.8787,0.888459
68.3083,0.888065
68.7379,0.887659
69.1675,0.887249
69.5971,0.886824
70.0267,0.886389
70.4563,0.885944
70.8859,0.885483
71.3156,0.885032
71.7452,0.884575
72.1748,0.884125
72.6044,0.883674
73.034,0.883222
73.4636,0.882756
73.8932,0.882309
74.3228,0.881849
74.7524,0.881376
75.1821,0.880905
75.6117,0.880419
76.0413,0.879914
76.4709,0.879398
76.9005,0.878856
77.3301,0.878308
77.7597,0.877754
78.1893,0.877191
78.619,0.876611
79.0486,0.876034
79.4782,0.875461
79.9078,0.87489
80.3374,0.874316
80.767,0.873737
81.1966,0.873167
81.6262,0.872597
82.0558,0.872026
82.4855,0.871469
82.9151,0.870887
83.3447,0.870305
83.7743,0.869721
84.2039,0.869128
84.6335,0.868532
85.0631,0.867939
85.4927,0.867339
85.9224,0.866741
86.352,0.866149
86.7816,0.865552
87.2112,0.864951
87.6408,0.864342
88.0704,0.863729
88.5,0.863103
88.9296,0.862474
89.3592,0.861834
89.7889,0.861182
90.2185,0.860502
90.6481,0.859807
91.0777,0.859096
91.5073,0.858353
91.9369,0.857609
92.3665,0.856849
92.7961,0.856088
93.2258,0.855329
93.6554,0.854559
94.085,0.853781
94.5146,0.853001
94.9442,0.852224
95.3738,0.851442
95.8034,0.850656
96.233,0.849862
96.6626,0.849064
97.0923,0.848249
97.5219,0.847429
97.9515,0.84659
98.3811,0.845737
98.8107,0.844875
99.2403,0.844008
99.6699,0.843123
100.1,0.842228
100.529,0.841321
100.959,0.840408
101.388,0.839493
101.818,0.838566
102.248,0.837624
102.677,0.836684
103.107,0.835738
103.536,0.834788
103.966,0.833839
104.396,0.83288
104.825,0.831897
105.255,0.8309
105.684,0.829891
106.114,0.82887
106.544,0.82784
106.973,0.826804
107.403,0.82575
107.833,0.824686
108.262,0.823612
108.692,0.822521
109.121,0.8214
109.551,0.820266
109.981,0.819108
110.41,0.817931
110.84,0.816729
111.269,0.815513
111.699,0.814277
112.129,0.813009
112.558,0.81173
112.988,0.810426
113.418,0.809097
113.847,0.807747
114.277,0.806363
114.706,0.804957
115.136,0.803522
115.566,0.802048
115.995,0.80053
116.425,0.798983
116.854,0.797397
117.284,0.795768
117.714,0.794112
118.143,0.792424
118.573,0.790693
119.002,0.788929
119.432,0.787112
119.862,0.785253
120.291,0.783349
120.721,0.781396
121.151,0.779406
121.58,0.777366
122.01,0.775275
122.439,0.773134
122.869,0.770919
123.299,0.768625
123.728,0.766247
124.158,0.763775
124.587,0.761208
125.017,0.758515
125.447,0.755589
125.876,0.752407
126.306,0.74905
126.735,0.745612
127.165,0.74218
127.595,0.738836
127.67,0.738264