File: smoothed_normalized_data/40.0mA8msec-0.2mA12msec.csv
Capacity_mAh,Voltage_V
0.0,1.0
0.0895557,0.992258
0.179111,0.986333
0.268667,0.982177
0.358223,0.978652
0.447778,0.975117
0.537334,0.971974
0.62689,0.969231
0.716446,0.966505
0.806001,0.963398
0.895557,0.961131
0.985113,0.960234
1.07467,0.959757
1.16422,0.958438
1.25378,0.956672
1.34334,0.954637
1.43289,0.953765
1.52245,0.954123
1.612,0.953473
1.70156,0.95181
1.79111,0.950566
1.88067,0.949799
1.97023,0.949743
2.05978,0.949684
2.14934,0.948254
2.23889,0.94619
2.32845,0.944224
2.418,0.942667
2.50756,0.940889
2.59712,0.940612
2.68667,0.939576
2.77623,0.938126
2.86578,0.937268
2.95534,0.935674
3.04489,0.933589
3.13445,0.933006
3.224,0.932781
3.31356,0.933288
3.40312,0.93282
3.49267,0.931368
3.58223,0.930575
3.67178,0.929836
3.76134,0.929657
3.85089,0.928665
3.94045,0.927718
4.03001,0.927469
4.11956,0.927104
4.20912,0.927786
4.29867,0.92805
4.38823,0.927586
4.47778,0.926936
4.56734,0.926539
4.6569,0.925804
4.74645,0.925296
4.83601,0.924852
4.92556,0.924513
5.01512,0.924207
5.10467,0.923645
5.19423,0.923059
5.28379,0.922388
5.37334,0.921438
5.4629,0.921337
5.55245,0.92092
5.64201,0.92077
5.73156,0.921272
5.82112,0.921261
5.91068,0.921183
6.00023,0.921252
6.08979,0.921827
6.17934,0.922233
6.2689,0.922896
6.35845,0.923571
6.44801,0.92385
6.53757,0.923645
6.62712,0.923562
6.71668,0.923547
6.80623,0.923548
6.89579,0.923316
6.98534,0.923138
7.0749,0.923121
7.16446,0.923038
7.25401,0.922922
7.34357,0.922714
7.43312,0.922542
7.52268,0.922621
7.61223,0.922596
7.70179,0.922324
7.79135,0.922195
7.8809,0.922228
7.97046,0.922134
8.06001,0.922122
8.14957,0.922127
8.23912,0.922066
8.32868,0.922108
8.41824,0.921968
8.50779,0.921717
8.59735,0.921567
8.6869,0.921474
8.77646,0.921359
8.86601,0.921025
8.95557,0.920732
9.04512,0.920517
9.13468,0.920304
9.22424,0.920075
9.31379,0.919816
9.40335,0.919665
9.4929,0.919419
9.58246,0.91905
9.67201,0.918808
9.76157,0.918658
9.85113,0.918454
9.94068,0.918219
10.0302,0.91771
10.1198,0.917454
10.2093,0.91715
10.2989,0.916879
10.3885,0.916772
10.478,0.916528
10.5676,0.916204
10.6571,0.91604
10.7467,0.915802
10.8362,0.915454
10.9258,0.915168
11.0154,0.914821
11.1049,0.914651
11.1945,0.914322
11.284,0.913993
11.3736,0.913679
11.4631,0.913315
11.5527,0.912988
11.6422,0.912719
11.7318,0.912327
11.8214,0.91198
11.9109,0.911632
12.0005,0.911312
12.09,0.910992
12.1796,0.91063
12.2691,0.910252
12.3587,0.909867
12.4482,0.909562
12.5378,0.909201
12.6274,0.909019
12.7169,0.908713
12.8065,0.908257
12.896,0.907865
12.9856,0.907599
13.0751,0.907158
13.1647,0.906833
13.2542,0.906514
13.3438,0.906137
13.4334,0.905812
13.5229,0.905365
13.6125,0.904972
13.702,0.9046
13.7916,0.904147
13.8811,0.9039
13.9707,0.903508
14.0602,0.903041
14.1498,0.902579
14.2394,0.902053
14.3289,0.90167
14.4185,0.901303
14.508,0.900891
14.5976,0.900426
14.6871,0.900039
14.7767,0.899563
14.8662,0.899178
14.9558,0.899002
15.0454,0.898525
15.1349,0.897984
15.2245,0.897456
15.314,0.896904
15.4036,0.896524
15.4931,0.896092
15.5827,0.895508
15.6722,0.895065
15.7618,0.894607
15.8514,0.894147
15.9409,0.893574
16.0305,0.893139
16.12,0.892685
16.2096,0.892106
16.2991,0.891572
16.3887,0.891005
16.4782,0.89045
16.5678,0.889871
16.6574,0.889277
16.7469,0.888699
16.8365,0.88813
16.926,0.887652
17.0156,0.886984
17.1051,0.886391
17.1947,0.885823
17.2842,0.885256
17.3738,0.884611
17.4634,0.883974
17.5529,0.883311
17.6425,0.882602
17.732,0.881852
17.8216,0.881167
17.9111,0.880409
18.0007,0.87976
18.0902,0.879033
18.1798,0.878373
18.2694,0.877699
18.3589,0.877041
18.4485,0.876431
18.538,0.875647
18.6276,0.874845
18.7171,0.874068
18.8067,0.873302
18.8963,0.872615
18.9858,0.871891
19.0754,0.870955
19.1649,0.87012
19.2545,0.86927
19.344,0.868472
19.4336,0.867612
19.5231,0.86668
19.6127,0.86577
19.7023,0.864886
19.7918,0.863814
19.8814,0.862788
19.9709,0.861713
20.0605,0.860675
20.15,0.859703
20.2396,0.858648
20.3291,0.857636
20.4187,0.856433
20.5083,0.855437
20.5978,0.854514
20.6874,0.853438
20.7769,0.852408
20.8665,0.8513
20.956,0.850181
21.0456,0.849002
21.1351,0.847886
21.2247,0.846769
21.3143,0.845564
21.4038,0.844303
21.4934,0.843237
21.5829,0.841901
21.6725,0.840616
21.762,0.839425
21.8516,0.838197
21.9411,0.836948
22.0307,0.835686
22.1203,0.834298
22.2098,0.832828
22.2994,0.831401
22.3889,0.830075
22.4785,0.828525