File: smoothed_normalized_data/40.0mA1msec-0.2mA19msec.csv
Capacity_mAh,Voltage_V
0.0,1.0
0.526209,0.968403
1.05242,0.947058
1.57863,0.933968
2.10484,0.927139
2.63105,0.924846
3.15725,0.923097
3.68346,0.922122
4.20967,0.921632
4.73588,0.921294
5.26209,0.920993
5.7883,0.920741
6.31451,0.920538
6.84072,0.920366
7.36693,0.920183
7.89314,0.920062
8.41935,0.919917
8.94556,0.919792
9.47176,0.919558
9.99797,0.919349
10.5242,0.919258
11.0504,0.919115
11.5766,0.919021
12.1028,0.918813
12.629,0.918609
13.1552,0.918532
13.6814,0.918467
14.2076,0.918346
14.7339,0.918351
15.2601,0.91839
15.7863,0.918335
16.3125,0.918245
16.8387,0.918259
17.3649,0.918273
17.8911,0.918241
18.4173,0.91819
18.9435,0.918318
19.4697,0.91858
19.9959,0.918758
20.5222,0.919002
21.0484,0.919285
21.5746,0.919204
22.1008,0.918886
22.627,0.918787
23.1532,0.918261
23.6794,0.917985
24.2056,0.917888
24.7318,0.918001
25.258,0.918217
25.7842,0.91836
26.3105,0.918398
26.8367,0.918528
27.3629,0.918101
27.8891,0.917741
28.4153,0.91752
28.9415,0.917407
29.4677,0.917345
29.9939,0.917329
30.5201,0.917325
31.0463,0.917258
31.5725,0.917086
32.0988,0.91677
32.625,0.916515
33.1512,0.916232
33.6774,0.916039
34.2036,0.915786
34.7298,0.915452
35.256,0.915074
35.7822,0.914623
36.3084,0.914263
36.8346,0.914067
37.3608,0.914061
37.8871,0.91427
38.4133,0.914479
38.9395,0.914571
39.4657,0.914598
39.9919,0.914445
40.5181,0.914294
41.0443,0.91417
41.5705,0.914038
42.0967,0.913932
42.6229,0.913812
43.1491,0.913667
43.6754,0.913563
44.2016,0.913435
44.7278,0.913321
45.254,0.913196
45.7802,0.913045
46.3064,0.912858
46.8326,0.912624
47.3588,0.912332
47.885,0.912012
48.4112,0.911693
48.9374,0.911377
49.4637,0.911058
49.9899,0.910785
50.5161,0.910513
51.0423,0.910237
51.5685,0.909981
52.0947,0.909739
52.6209,0.909519
53.1471,0.909303
53.6733,0.909107
54.1995,0.908951
54.7258,0.908807
55.252,0.908646
55.7782,0.908486
56.3044,0.908342
56.8306,0.90819
57.3568,0.908014
57.883,0.907844
58.4092,0.907677
58.9354,0.907517
59.4616,0.907365
59.9878,0.907213
60.5141,0.907099
61.0403,0.906993
61.5665,0.90686
62.0927,0.906727
62.6189,0.906545
63.1451,0.906332
63.6713,0.90611
64.1975,0.905862
64.7237,0.905582
65.2499,0.905289
65.7761,0.905002
66.3024,0.90473
66.8286,0.904449
67.3548,0.90417
67.881,0.903917
68.4072,0.903676
68.9334,0.903422
69.4596,0.90315
69.9858,0.902859
70.512,0.902547
71.0382,0.902225
71.5644,0.901912
72.0907,0.901612
72.6169,0.901341
73.1431,0.901082
73.6693,0.900789
74.1955,0.900482
74.7217,0.900178
75.2479,0.899889
75.7741,0.89962
76.3003,0.899394
76.8265,0.899212
77.3527,0.89904
77.879,0.898876
78.4052,0.898711
78.9314,0.898527
79.4576,0.898315
79.9838,0.898082
80.51,0.897855
81.0362,0.897632
81.5624,0.897404
82.0886,0.897185
82.6148,0.89695
83.141,0.896697
83.6673,0.896447
84.1935,0.896185
84.7197,0.895921
85.2459,0.895664
85.7721,0.895428
86.2983,0.895232
86.8245,0.895023
87.3507,0.894829
87.8769,0.894669
88.4031,0.894514
88.9293,0.894354
89.4556,0.89419
89.9818,0.894021
90.508,0.893789
91.0342,0.893429
91.5604,0.893026
92.0866,0.892595
92.6128,0.892211
93.139,0.891917
93.6652,0.891659
94.1914,0.891461
94.7176,0.891312
95.2439,0.891135
95.7701,0.890942
96.2963,0.890662
96.8225,0.890314
97.3487,0.889975
97.8749,0.889561
98.4011,0.889221
98.9273,0.888965
99.4535,0.888761
99.9797,0.888508
100.506,0.888227
101.032,0.887918
101.558,0.887563
102.085,0.88709
102.611,0.886569
103.137,0.886092
103.663,0.885654
104.189,0.885299
104.716,0.885104
105.242,0.88506
105.768,0.885004
106.294,0.88488
106.82,0.884559
107.347,0.88434
107.873,0.884122
108.399,0.883896
108.925,0.883736
109.452,0.883543
109.978,0.883282
110.504,0.883032
111.03,0.882425
111.556,0.881878
112.083,0.881339
112.609,0.880723
113.135,0.880222
113.661,0.879762
114.187,0.8793
114.714,0.879012
115.24,0.878506
115.766,0.877882
116.292,0.877256
116.818,0.876674
117.345,0.876113
117.871,0.875686
118.397,0.875321
118.923,0.874912
119.449,0.874408
119.976,0.873924
120.502,0.873464
121.028,0.873085
121.554,0.87275
122.081,0.87255
122.607,0.872303
123.133,0.87197
123.659,0.871549
124.185,0.871274
124.712,0.871088
125.238,0.870993
125.764,0.870917
126.29,0.870857
126.816,0.870662
127.343,0.87026
127.869,0.869746
128.395,0.869161
128.921,0.868658
129.447,0.868261
129.974,0.867875
130.5,0.86756
131.026,0.867262
131.552,0.866886
132.078,0.866537
132.605,0.866145
133.131,0.865762
133.657,0.865437
134.183,0.865099
134.71,0.864619
135.236,0.864013
135.762,0.863198
136.288,0.862378
136.814,0.861669
137.341,0.861088
137.867,0.860525
138.393,0.86015
138.919,0.859854
139.445,0.859467
139.972,0.858917
140.498,0.85832
141.024,0.857706
141.55,0.857084
142.076,0.856602
142.603,0.856239
143.129,0.855869
143.655,0.855479
144.181,0.854911
144.708,0.854262
145.234,0.853546
145.76,0.852982
146.286,0.852698
146.812,0.852237
147.339,0.851868
147.865,0.851243
148.391,0.85039
148.917,0.849638
149.443,0.848801
149.97,0.848089
150.496,0.847525
151.022,0.846726
151.548,0.845891
152.074,0.844886
152.601,0.843783
153.127,0.842919
153.653,0.842389
154.179,0.842021
154.705,0.841714
155.232,0.84134
155.758,0.840774
156.284,0.840069
156.81,0.839245
157.337,0.838305
157.695,0.837599