File: smoothed_normalized_data/40.0mA2msec-0.2mA18msec.csv
Capacity_mAh,Voltage_V
0.0,1.0
0.412195,0.98232
0.82439,0.967287
1.23659,0.954693
1.64878,0.94433
2.06098,0.935993
2.47317,0.929472
2.88537,0.924561
3.29756,0.921052
3.70976,0.918739
4.12195,0.917413
4.53415,0.917056
4.94634,0.917431
5.35854,0.917146
5.77073,0.916635
6.18293,0.915967
6.59512,0.915216
7.00732,0.914473
7.41951,0.913815
7.83171,0.913247
8.2439,0.912764
8.6561,0.912367
9.06829,0.912047
9.48049,0.911783
9.89268,0.91158
10.3049,0.911412
10.7171,0.911278
11.1293,0.911175
11.5415,0.911095
11.9537,0.911056
12.3659,0.911037
12.778,0.911022
13.1902,0.911001
13.6024,0.91098
14.0146,0.910955
14.4268,0.910923
14.839,0.910893
15.2512,0.910862
15.6634,0.910835
16.0756,0.910816
16.4878,0.910787
16.9,0.91075
17.3122,0.910711
17.7244,0.910655
18.1366,0.910591
18.5488,0.910524
18.961,0.91045
19.3732,0.910391
19.7854,0.910341
20.1976,0.910307
20.6098,0.910288
21.0219,0.910256
21.4341,0.910217
21.8463,0.910169
22.2585,0.910108
22.6707,0.910033
23.0829,0.909944
23.4951,0.909847
23.9073,0.909747
24.3195,0.909635
24.7317,0.909512
25.1439,0.909358
25.5561,0.909192
25.9683,0.909016
26.3805,0.908823
26.7927,0.908627
27.2049,0.908432
27.6171,0.908236
28.0293,0.908054
28.4415,0.907874
28.8537,0.907714
29.2659,0.907572
29.678,0.907441
30.0902,0.907323
30.5024,0.907197
30.9146,0.907055
31.3268,0.906891
31.739,0.906709
32.1512,0.906513
32.5634,0.906311
32.9756,0.906097
33.3878,0.905887
33.8,0.905679
34.2122,0.905482
34.6244,0.90528
35.0366,0.905078
35.4488,0.904878
35.861,0.904675
36.2732,0.904468
36.6854,0.904276
37.0976,0.9041
37.5098,0.903937
37.9219,0.903767
38.3341,0.903584
38.7463,0.903389
39.1585,0.903158
39.5707,0.902892
39.9829,0.902598
40.3951,0.902303
40.8073,0.902012
41.2195,0.901725
41.6317,0.901426
42.0439,0.90115
42.4561,0.900877
42.8683,0.900593
43.2805,0.9003
43.6927,0.900022
44.1049,0.89974
44.5171,0.899451
44.9293,0.899159
45.3415,0.898861
45.7537,0.898545
46.1658,0.898212
46.578,0.897859
46.9902,0.897489
47.4024,0.897103
47.8146,0.896705
48.2268,0.896325
48.639,0.89597
49.0512,0.895635
49.4634,0.895303
49.8756,0.894972
50.2878,0.894628
50.7,0.894284
51.1122,0.893939
51.5244,0.8936
51.9366,0.893274
52.3488,0.892956
52.761,0.89263
53.1732,0.8923
53.5854,0.891955
53.9976,0.891598
54.4097,0.891223
54.8219,0.890848
55.2341,0.890453
55.6463,0.890041
56.0585,0.8896
56.4707,0.889156
56.8829,0.888731
57.2951,0.888319
57.7073,0.88792
58.1195,0.887531
58.5317,0.887143
58.9439,0.886747
59.3561,0.88635
59.7683,0.885974
60.1805,0.885589
60.5927,0.885203
61.0049,0.884818
61.4171,0.884433
61.8293,0.884045
62.2415,0.883673
62.6537,0.883314
63.0658,0.882954
63.478,0.88259
63.8902,0.882218
64.3024,0.881842
64.7146,0.881451
65.1268,0.881062
65.539,0.880676
65.9512,0.880292
66.3634,0.879902
66.7756,0.879483
67.1878,0.879021
67.6,0.878529
68.0122,0.878004
68.4244,0.877454
68.8366,0.876874
69.2488,0.876279
69.661,0.875669
70.0732,0.875049
70.4854,0.874436
70.8976,0.87382
71.3097,0.873204
71.7219,0.872581
72.1341,0.871969
72.5463,0.871398
72.9585,0.87085
73.3707,0.870312
73.7829,0.869778
74.1951,0.869262
74.6073,0.868784
75.0195,0.868332
75.4317,0.867885
75.8439,0.867433
76.2561,0.866976
76.6683,0.866504
77.0805,0.866024
77.4927,0.865528
77.9049,0.865013
78.3171,0.864491
78.7293,0.863967
79.1415,0.863448
79.5536,0.862927
79.9658,0.862411
80.378,0.861889
80.7902,0.861384
81.2024,0.8609
81.6146,0.860419
82.0268,0.859944
82.439,0.859471
82.8512,0.859017
83.2634,0.858581
83.6756,0.858135
84.0878,0.85766
84.5,0.857161
84.9122,0.856632
85.3244,0.85609
85.7366,0.855534
86.1488,0.854969
86.561,0.854398
86.9732,0.853824
87.3854,0.853237
87.7976,0.852629
88.2097,0.852001
88.6219,0.851345
89.0341,0.850667
89.4463,0.849981
89.8585,0.849285
90.2707,0.848582
90.6829,0.847873
91.0951,0.847163
91.5073,0.846458
91.9195,0.845753
92.3317,0.845044
92.7439,0.844326
93.1561,0.843612
93.5683,0.842894
93.9805,0.842177
94.3927,0.841448
94.8049,0.840706
95.2171,0.839944
95.6293,0.839159
96.0415,0.838354
96.4536,0.837526
96.8658,0.836679
97.278,0.835795
97.6902,0.834902
98.1024,0.833995
98.5146,0.833083
98.9268,0.832164
99.339,0.831266
99.7512,0.830377
100.163,0.829474
100.576,0.828532
100.988,0.827535
101.4,0.826489
101.812,0.825396
102.224,0.824262
102.637,0.823088
103.049,0.821852
103.461,0.820569
103.873,0.819245
104.285,0.817859
104.698,0.816412
105.11,0.814944
105.522,0.813477
105.934,0.812024
106.346,0.810613
106.759,0.809233
107.171,0.807911
107.583,0.806648
107.995,0.805449
108.407,0.804268
108.819,0.803093
109.232,0.801909
109.644,0.80072
110.056,0.799522
110.468,0.79831
110.88,0.797078
111.293,0.7958
111.705,0.794458
112.117,0.793053
112.529,0.791563
112.941,0.789995
113.354,0.788373
113.766,0.786714
114.178,0.785002
114.59,0.78323
115.002,0.781399
115.415,0.779512
115.827,0.77758
116.239,0.775607
116.651,0.773573
117.063,0.771471
117.476,0.769306
117.888,0.767063
118.3,0.764753
118.712,0.762374
119.124,0.759987
119.537,0.757528
119.949,0.754845
120.361,0.751959
120.773,0.749118
121.185,0.746196
121.598,0.743176
122.01,0.74004
122.201,0.738536