File: smoothed_normalized_data/50.0mA1msec-0.2mA19msec.csv
Capacity_mAh,Voltage_V
0.0,1.0
0.646348,0.959511
1.2927,0.933198
1.93904,0.918145
2.58539,0.911434
3.23174,0.910452
3.87809,0.909535
4.52444,0.908947
5.17079,0.908278
5.81713,0.907517
6.46348,0.906801
7.10983,0.906218
7.75618,0.90571
8.40253,0.905265
9.04887,0.904968
9.69522,0.904821
10.3416,0.904776
10.9879,0.904698
11.6343,0.904562
12.2806,0.904475
12.927,0.904302
13.5733,0.904111
14.2197,0.90403
14.866,0.904002
15.5124,0.904016
16.1587,0.903911
16.8051,0.903689
17.4514,0.903529
18.0977,0.903437
18.7441,0.903471
19.3904,0.903574
20.0368,0.903688
20.6831,0.903854
21.3295,0.904004
21.9758,0.904107
22.6222,0.904089
23.2685,0.904053
23.9149,0.904029
24.5612,0.904062
25.2076,0.904109
25.8539,0.904279
26.5003,0.904484
27.1466,0.904603
27.793,0.904495
28.4393,0.904191
29.0857,0.903816
29.732,0.903454
30.3784,0.903079
31.0247,0.902797
31.6711,0.902592
32.3174,0.902363
32.9638,0.902095
33.6101,0.9018
34.2565,0.9015
34.9028,0.901173
35.5492,0.900799
36.1955,0.900455
36.8418,0.90014
37.4882,0.899846
38.1345,0.899506
38.7809,0.899091
39.4272,0.898714
40.0736,0.898386
40.7199,0.898094
41.3663,0.897817
42.0126,0.897584
42.659,0.897386
43.3053,0.897112
43.9517,0.896806
44.598,0.896498
45.2444,0.896239
45.8907,0.896014
46.5371,0.895781
47.1834,0.895567
47.8298,0.895385
48.4761,0.895237
49.1225,0.895106
49.7688,0.894969
50.4152,0.894855
51.0615,0.894743
51.7079,0.894622
52.3542,0.894494
53.0006,0.894381
53.6469,0.894261
54.2932,0.894076
54.9396,0.893852
55.5859,0.893617
56.2323,0.893343
56.8786,0.893088
57.525,0.892855
58.1713,0.892664
58.8177,0.892442
59.464,0.892164
60.1104,0.89186
60.7567,0.891516
61.4031,0.89121
62.0494,0.890868
62.6958,0.890387
63.3421,0.889849
63.9885,0.889305
64.6348,0.888727
65.2812,0.888303
65.9275,0.887997
66.5739,0.887826
67.2202,0.887863
67.8666,0.887546
68.5129,0.88695
69.1593,0.886187
69.8056,0.885362
70.452,0.884657
71.0983,0.884098
71.7447,0.883704
72.391,0.883484
73.0373,0.883218
73.6837,0.882905
74.33,0.882599
74.9764,0.882461
75.6227,0.88236
76.2691,0.882311
76.9154,0.88214
77.5618,0.881794
78.2081,0.881369
78.8545,0.880835
79.5008,0.880281
80.1472,0.879736
80.7935,0.879195
81.4399,0.878793
82.0862,0.878266
82.7326,0.877614
83.3789,0.876811
84.0253,0.875918
84.6716,0.87509
85.318,0.874525
85.9643,0.874208
86.6107,0.874185
87.257,0.874209
87.9034,0.874143
88.5497,0.873899
89.1961,0.873574
89.8424,0.873185
90.4887,0.872877
91.1351,0.87253
91.7814,0.872193
92.4278,0.871782
93.0741,0.87125
93.7205,0.870656
94.3668,0.870134
95.0132,0.869627
95.6595,0.869097
96.3059,0.868499
96.9522,0.867841
97.5986,0.867111
98.2449,0.866315
98.8913,0.865547
99.5376,0.86491
100.184,0.864374
100.83,0.863865
101.477,0.863335
102.123,0.862753
102.769,0.862153
103.416,0.861537
104.062,0.860961
104.708,0.86043
105.355,0.859914
106.001,0.859322
106.647,0.858673
107.294,0.857932
107.94,0.857171
108.586,0.856418
109.233,0.855693
109.879,0.855004
110.526,0.854357
111.172,0.85376
111.818,0.853194
112.465,0.852623
113.111,0.852116
113.757,0.851573
114.404,0.851007
115.05,0.850411
115.696,0.849774
116.343,0.84915
116.989,0.84855
117.635,0.847917
118.282,0.847336
118.928,0.846673
119.574,0.845942
120.221,0.845257
120.867,0.844577
121.513,0.843898
122.16,0.843252
122.806,0.842578
123.453,0.841864
124.099,0.841153
124.745,0.84048
125.392,0.839868
126.038,0.839436
126.684,0.838784
127.331,0.837886
127.977,0.836832
128.623,0.835635
129.27,0.834561
129.916,0.833499
130.562,0.832358
131.209,0.83141
131.855,0.830524
132.501,0.829755
133.148,0.829165
133.794,0.828723
134.44,0.82835
135.087,0.827924
135.733,0.827216
136.379,0.826373
137.026,0.825543
137.672,0.824742
138.319,0.82398
138.965,0.823191
139.611,0.822331
140.258,0.821401
140.904,0.820455
141.55,0.819355
142.197,0.818266
142.843,0.817148
143.489,0.816029
144.136,0.814894
144.782,0.813743
145.428,0.812592
146.075,0.811424
146.721,0.810132
147.367,0.808827
148.014,0.807465
148.66,0.806057
149.306,0.80462
149.953,0.803174
150.599,0.801781
151.245,0.800454
151.892,0.799223
152.538,0.798018
153.185,0.796723
153.831,0.795274
154.477,0.793653
155.124,0.791915
155.77,0.790044
156.416,0.788223
157.063,0.786542
157.709,0.784965
158.355,0.783406
159.002,0.781891
159.648,0.780587
160.294,0.779132
160.941,0.776916
161.587,0.774002
162.233,0.770546
162.88,0.766862
163.526,0.763215
164.172,0.759851
164.819,0.757074
165.465,0.754585
166.111,0.751939
166.758,0.749438
167.404,0.747242
168.051,0.745493
168.697,0.744207
169.343,0.743295
169.99,0.742651
170.636,0.74205
171.282,0.741452
171.929,0.740851
172.575,0.740252
173.221,0.739665
173.868,0.739139
174.514,0.73865
175.16,0.738167
175.807,0.737728
176.453,0.737265
177.099,0.736827
177.746,0.736355
178.392,0.735866
179.038,0.735354
179.685,0.734837
180.331,0.734358
180.977,0.733885
181.624,0.733372
182.27,0.732868
182.917,0.73233
183.563,0.731724
184.209,0.731034
184.856,0.73031
185.502,0.729601
186.148,0.728855
186.795,0.728081
187.441,0.727261
188.087,0.726469
188.734,0.725684
189.38,0.724861
190.026,0.724016
190.673,0.723125
191.319,0.722195
191.965,0.721254
192.612,0.720332
193.258,0.719453
193.437,0.71922